First column is AoA (deg) and first row is Reynolds Number
0.000000	200000.000000	300000.000000	400000.000000	500000.000000	600000.000000	700000.000000	800000.000000	900000.000000	1000000.000000	1100000.000000	1200000.000000	1300000.000000	1400000.000000	1500000.000000	1600000.000000	1700000.000000	1800000.000000	1900000.000000	2000000.000000	2100000.000000	2200000.000000	2300000.000000	2400000.000000	2500000.000000	2600000.000000	2700000.000000	2800000.000000	2900000.000000	3000000.000000	3100000.000000	3200000.000000	3300000.000000	3400000.000000	3500000.000000	3600000.000000	3700000.000000	3800000.000000	3900000.000000	4000000.000000
-180.000000	-0.039500	-0.040300	-0.040800	-0.040900	-0.041100	-0.041400	-0.041500	-0.041500	-0.041500	-0.041600	-0.041800	-0.042000	-0.042200	-0.042200	-0.042300	-0.042300	-0.042300	-0.042300	-0.042400	-0.042400	-0.042500	-0.042600	-0.042600	-0.042700	-0.042800	-0.042800	-0.042900	-0.043000	-0.043000	-0.043000	-0.043100	-0.043100	-0.043100	-0.043100	-0.043200	-0.043200	-0.043200	-0.043200	-0.043200
-179.000000	0.048700	0.050300	0.043200	0.017800	-0.008200	-0.001800	0.032500	0.050400	0.054300	0.054800	0.054900	0.054600	0.054400	0.054500	0.054600	0.054700	0.054800	0.054900	0.055000	0.055100	0.055100	0.055000	0.055000	0.055000	0.054900	0.054900	0.054900	0.054800	0.054800	0.054700	0.054700	0.054700	0.054800	0.054800	0.054800	0.054800	0.054800	0.054900	0.054900
-178.000000	0.134200	0.133500	0.112300	0.064600	0.024100	0.034600	0.090100	0.131500	0.146300	0.150300	0.151400	0.151300	0.151000	0.151300	0.151500	0.151800	0.152000	0.152200	0.152400	0.152600	0.152600	0.152600	0.152600	0.152600	0.152600	0.152600	0.152600	0.152600	0.152500	0.152500	0.152500	0.152600	0.152600	0.152700	0.152800	0.152800	0.152900	0.152900	0.153000
-177.000000	0.210900	0.201500	0.163500	0.102700	0.055800	0.068600	0.133100	0.194500	0.226800	0.240300	0.245700	0.247200	0.247400	0.248000	0.248400	0.248800	0.249200	0.249500	0.249800	0.250000	0.250200	0.250200	0.250300	0.250300	0.250400	0.250400	0.250400	0.250400	0.250300	0.250200	0.250300	0.250400	0.250500	0.250600	0.250700	0.250800	0.250900	0.251000	0.251100
-176.000000	0.270600	0.248800	0.198900	0.135000	0.087000	0.100900	0.165600	0.236400	0.286500	0.315100	0.330300	0.337500	0.340800	0.343300	0.344700	0.345600	0.346300	0.346800	0.347200	0.347500	0.347700	0.347800	0.347900	0.348000	0.348100	0.348100	0.348200	0.348200	0.348100	0.348000	0.348100	0.348300	0.348400	0.348600	0.348700	0.348800	0.348900	0.349000	0.349100
-175.000000	0.308200	0.276500	0.223400	0.163700	0.117600	0.131800	0.191700	0.261100	0.320600	0.363600	0.392600	0.410600	0.421800	0.429700	0.435000	0.438500	0.441000	0.442600	0.443800	0.444600	0.445100	0.445400	0.445500	0.445700	0.445800	0.445900	0.446000	0.446000	0.445800	0.445700	0.445900	0.446100	0.446300	0.446500	0.446600	0.446800	0.447000	0.447100	0.447200
-174.000000	0.326400	0.291300	0.242200	0.190300	0.147700	0.161500	0.214400	0.275700	0.333900	0.383300	0.422700	0.452500	0.474600	0.491900	0.505000	0.514800	0.522300	0.528000	0.532300	0.535500	0.537900	0.539600	0.540900	0.541800	0.542500	0.543000	0.543400	0.543600	0.543500	0.543400	0.543700	0.543900	0.544200	0.544400	0.544600	0.544800	0.545000	0.545200	0.545300
-173.000000	0.332900	0.300300	0.258800	0.215600	0.177200	0.190300	0.235600	0.286200	0.336400	0.382800	0.424000	0.459400	0.489400	0.515200	0.536900	0.555100	0.570400	0.583100	0.593800	0.602600	0.610000	0.615900	0.620900	0.625100	0.628500	0.631300	0.633700	0.635600	0.636800	0.637800	0.639000	0.640000	0.640800	0.641500	0.642100	0.642500	0.642900	0.643100	0.643400
-172.000000	0.335800	0.308400	0.275200	0.240100	0.206000	0.218300	0.256300	0.296600	0.336500	0.374700	0.410600	0.443700	0.474100	0.502100	0.527700	0.550800	0.571800	0.590800	0.607900	0.623200	0.637000	0.649300	0.660300	0.670200	0.679100	0.687000	0.694200	0.700500	0.705900	0.710800	0.715500	0.719600	0.723300	0.726600	0.729400	0.732000	0.734200	0.736000	0.737700
-171.000000	0.339800	0.318000	0.292200	0.264200	0.234200	0.245500	0.277100	0.308400	0.338700	0.367800	0.395600	0.422200	0.447500	0.471800	0.494900	0.516900	0.537900	0.557900	0.576800	0.594800	0.611900	0.628000	0.643300	0.657900	0.671700	0.684800	0.697300	0.709100	0.720300	0.730800	0.741000	0.750600	0.759800	0.768400	0.776600	0.784300	0.791600	0.798400	0.804800
-170.000000	0.346700	0.329800	0.310100	0.287800	0.261800	0.272000	0.298000	0.322000	0.344600	0.365800	0.386100	0.405600	0.424400	0.442600	0.460400	0.477700	0.494500	0.511000	0.527100	0.542800	0.558200	0.573300	0.588100	0.602700	0.617100	0.631300	0.645300	0.659200	0.673000	0.686600	0.700100	0.713500	0.726700	0.739900	0.753100	0.766100	0.779200	0.792300	0.805400
-169.000000	0.356900	0.343800	0.328700	0.311200	0.288700	0.297800	0.319100	0.337400	0.354000	0.369200	0.383500	0.397100	0.410300	0.423100	0.435500	0.447700	0.459700	0.471400	0.483100	0.494600	0.506100	0.517400	0.528700	0.540100	0.551500	0.563000	0.574500	0.586200	0.598100	0.610300	0.622400	0.634900	0.647600	0.660600	0.674000	0.687800	0.702100	0.717000	0.732500
-168.000000	0.369700	0.359600	0.348000	0.334200	0.314900	0.323000	0.340300	0.354100	0.366200	0.377100	0.387000	0.396400	0.405300	0.414000	0.422300	0.430500	0.438500	0.446400	0.454200	0.461900	0.469600	0.477200	0.484800	0.492500	0.500300	0.508200	0.516100	0.524300	0.532700	0.541300	0.550000	0.559000	0.568300	0.578000	0.588100	0.598600	0.609800	0.621700	0.634400
-167.000000	0.384700	0.376600	0.367700	0.356800	0.340300	0.347400	0.361400	0.371900	0.380700	0.388400	0.395300	0.401700	0.407700	0.413400	0.418900	0.424300	0.429500	0.434700	0.439700	0.444700	0.449600	0.454500	0.459300	0.464300	0.469200	0.474200	0.479300	0.484500	0.489800	0.495300	0.500900	0.506600	0.512600	0.518800	0.525300	0.532200	0.539500	0.547200	0.555600
-166.000000	0.401200	0.394500	0.387600	0.379000	0.365100	0.371200	0.382400	0.390300	0.396700	0.402100	0.406900	0.411200	0.415200	0.419000	0.422700	0.426200	0.429600	0.432900	0.436100	0.439300	0.442400	0.445400	0.448500	0.451500	0.454600	0.457700	0.460800	0.464000	0.467300	0.470600	0.474000	0.477500	0.481200	0.484900	0.488900	0.493000	0.497400	0.502100	0.507200
-165.000000	0.418600	0.413000	0.407600	0.400800	0.389000	0.394300	0.403200	0.409100	0.413700	0.417500	0.420800	0.423700	0.426400	0.428900	0.431300	0.433500	0.435700	0.437800	0.439900	0.441900	0.443800	0.445700	0.447600	0.449500	0.451400	0.453300	0.455200	0.457200	0.459200	0.461200	0.463200	0.465300	0.467500	0.469800	0.472100	0.474600	0.477200	0.479900	0.482900
-164.000000	0.436600	0.431700	0.427400	0.422000	0.412100	0.416600	0.423600	0.428000	0.431300	0.433900	0.436200	0.438100	0.439900	0.441500	0.443000	0.444500	0.445900	0.447200	0.448500	0.449800	0.451000	0.452200	0.453400	0.454500	0.455700	0.456900	0.458000	0.459200	0.460400	0.461600	0.462800	0.464100	0.465400	0.466700	0.468100	0.469600	0.471100	0.472700	0.474500
-163.000000	0.454900	0.450400	0.446900	0.442600	0.434500	0.438100	0.443600	0.446800	0.449100	0.450900	0.452500	0.453700	0.454800	0.455800	0.456800	0.457700	0.458600	0.459500	0.460300	0.461100	0.461800	0.462500	0.463200	0.463900	0.464600	0.465400	0.466100	0.466800	0.467500	0.468200	0.468900	0.469700	0.470400	0.471200	0.472000	0.472900	0.473800	0.474700	0.475800
-162.000000	0.473200	0.469000	0.466000	0.462700	0.456000	0.458900	0.463000	0.465300	0.466900	0.468100	0.469200	0.469900	0.470600	0.471200	0.471800	0.472300	0.472900	0.473400	0.473900	0.474400	0.474800	0.475200	0.475600	0.476000	0.476500	0.476900	0.477300	0.477700	0.478100	0.478500	0.478900	0.479400	0.479800	0.480300	0.480700	0.481200	0.481800	0.482300	0.482900
-161.000000	0.491300	0.487200	0.484700	0.482000	0.476600	0.478900	0.481900	0.483500	0.484500	0.485300	0.486000	0.486400	0.486700	0.487100	0.487400	0.487700	0.488000	0.488200	0.488500	0.488800	0.489000	0.489300	0.489500	0.489700	0.489900	0.490200	0.490400	0.490600	0.490800	0.491100	0.491300	0.491500	0.491700	0.492000	0.492300	0.492500	0.492800	0.493100	0.493500
-160.000000	0.509100	0.505000	0.502800	0.500600	0.496400	0.498000	0.500200	0.501100	0.501800	0.502200	0.502600	0.502800	0.502900	0.503000	0.503200	0.503300	0.503400	0.503500	0.503700	0.503800	0.503900	0.504000	0.504100	0.504200	0.504300	0.504400	0.504500	0.504600	0.504700	0.504800	0.504900	0.505000	0.505100	0.505200	0.505400	0.505500	0.505700	0.505800	0.506000
-159.000000	0.526400	0.522200	0.520200	0.518500	0.515300	0.516400	0.517700	0.518200	0.518600	0.518800	0.519000	0.519000	0.518900	0.518900	0.518900	0.518900	0.518900	0.518900	0.518900	0.519000	0.519000	0.519000	0.519000	0.519000	0.519000	0.519100	0.519100	0.519100	0.519100	0.519100	0.519200	0.519200	0.519200	0.519200	0.519300	0.519300	0.519400	0.519400	0.519500
-158.000000	0.543100	0.538900	0.537000	0.535600	0.533200	0.533800	0.534500	0.534700	0.534800	0.534800	0.534800	0.534700	0.534500	0.534400	0.534300	0.534200	0.534100	0.534100	0.534000	0.534000	0.533900	0.533900	0.533800	0.533800	0.533800	0.533800	0.533700	0.533700	0.533700	0.533600	0.533600	0.533500	0.533500	0.533500	0.533500	0.533400	0.533400	0.533400	0.533400
-157.000000	0.559200	0.554800	0.553000	0.551900	0.550300	0.550400	0.550600	0.550500	0.550300	0.550200	0.550200	0.549900	0.549700	0.549500	0.549300	0.549100	0.549000	0.548800	0.548700	0.548600	0.548600	0.548500	0.548400	0.548300	0.548200	0.548200	0.548100	0.548100	0.548000	0.547900	0.547800	0.547700	0.547700	0.547600	0.547500	0.547500	0.547400	0.547400	0.547400
-156.000000	0.574600	0.570000	0.568300	0.567300	0.566400	0.566100	0.565800	0.565400	0.565200	0.564900	0.564800	0.564500	0.564200	0.563900	0.563700	0.563400	0.563300	0.563100	0.562900	0.562800	0.562700	0.562600	0.562500	0.562400	0.562300	0.562200	0.562100	0.562000	0.561900	0.561800	0.561700	0.561600	0.561500	0.561400	0.561300	0.561200	0.561200	0.561100	0.561000
-155.000000	0.589200	0.584400	0.582700	0.581900	0.581500	0.580900	0.580200	0.579700	0.579300	0.578900	0.578800	0.578400	0.578000	0.577700	0.577400	0.577100	0.576900	0.576700	0.576500	0.576400	0.576200	0.576100	0.576000	0.575900	0.575800	0.575700	0.575600	0.575500	0.575300	0.575200	0.575000	0.574900	0.574800	0.574700	0.574600	0.574500	0.574400	0.574300	0.574200
-154.000000	0.603100	0.598000	0.596300	0.595600	0.586000	0.594700	0.593700	0.593000	0.592500	0.592200	0.592000	0.591600	0.591100	0.590700	0.590400	0.590100	0.589900	0.589600	0.589400	0.589300	0.589100	0.588900	0.588800	0.588700	0.588600	0.588500	0.588300	0.588200	0.588100	0.587900	0.587800	0.587600	0.587500	0.587400	0.587300	0.587100	0.587000	0.586900	0.586800
-153.000000	0.616000	0.610800	0.609000	0.608300	0.599300	0.607600	0.606300	0.605500	0.605000	0.604500	0.604300	0.603900	0.603400	0.603000	0.602600	0.602300	0.602000	0.601800	0.601600	0.601400	0.601200	0.601000	0.600900	0.600800	0.600600	0.600500	0.600400	0.600300	0.600100	0.599900	0.599800	0.599600	0.599500	0.599300	0.599200	0.599100	0.599000	0.598900	0.598700
-152.000000	0.628200	0.622600	0.620900	0.620200	0.611700	0.619600	0.618100	0.617200	0.616500	0.616100	0.615800	0.615400	0.614900	0.614400	0.614000	0.613700	0.613400	0.613100	0.612900	0.612700	0.612500	0.612300	0.612200	0.612000	0.611900	0.611800	0.611600	0.611500	0.611300	0.611200	0.611000	0.610800	0.610700	0.610500	0.610400	0.610300	0.610100	0.610000	0.609900
-151.000000	0.639400	0.633600	0.631800	0.631100	0.623100	0.630600	0.628900	0.627900	0.627200	0.626700	0.626500	0.626000	0.625500	0.625000	0.624600	0.624200	0.623900	0.623600	0.623400	0.623200	0.623000	0.622800	0.622600	0.622500	0.622300	0.622200	0.622100	0.621900	0.621700	0.621600	0.621400	0.621200	0.621100	0.620900	0.620800	0.620600	0.620500	0.620400	0.620200
-150.000000	0.649700	0.643700	0.641800	0.641100	0.633500	0.640600	0.638800	0.637700	0.637000	0.636500	0.636200	0.635700	0.635200	0.634700	0.634200	0.633800	0.633500	0.633200	0.633000	0.632700	0.632500	0.632300	0.632200	0.632000	0.631900	0.631800	0.631600	0.631500	0.631300	0.631100	0.630900	0.630700	0.630600	0.630400	0.630300	0.630100	0.630000	0.629800	0.629700
-149.000000	0.659100	0.652800	0.650800	0.650200	0.642900	0.649700	0.647700	0.646600	0.645800	0.645300	0.645000	0.644500	0.643900	0.643400	0.643000	0.642600	0.642200	0.641900	0.641700	0.641400	0.641200	0.641000	0.640800	0.640700	0.640600	0.640400	0.640300	0.640200	0.639900	0.639700	0.639500	0.639400	0.639200	0.639000	0.638900	0.638700	0.638600	0.638400	0.638300
-148.000000	0.667500	0.661000	0.658900	0.658200	0.651400	0.657800	0.655700	0.654500	0.653700	0.653200	0.652900	0.652400	0.651800	0.651300	0.650800	0.650400	0.650000	0.649700	0.649400	0.649200	0.649000	0.648800	0.648600	0.648500	0.648300	0.648200	0.648000	0.647900	0.647700	0.647500	0.647300	0.647100	0.646900	0.646700	0.646600	0.646400	0.646300	0.646100	0.646000
-147.000000	0.675000	0.668200	0.666100	0.665400	0.658800	0.665000	0.662700	0.661500	0.660700	0.660100	0.659900	0.659400	0.658700	0.658200	0.657700	0.657300	0.656900	0.656600	0.656300	0.656100	0.655800	0.655600	0.655400	0.655300	0.655200	0.655000	0.654900	0.654700	0.654500	0.654300	0.654100	0.653900	0.653700	0.653500	0.653400	0.653200	0.653100	0.652900	0.652800
-146.000000	0.681500	0.674500	0.672300	0.671500	0.665300	0.671100	0.668800	0.667600	0.666700	0.666100	0.665900	0.665400	0.664700	0.664200	0.663700	0.663200	0.662800	0.662500	0.662200	0.662000	0.661700	0.661500	0.661300	0.661200	0.661100	0.660900	0.660800	0.660600	0.660400	0.660200	0.660000	0.659800	0.659600	0.659400	0.659200	0.659100	0.658900	0.658800	0.658600
-145.000000	0.687100	0.679800	0.677500	0.676700	0.670700	0.676300	0.673900	0.672700	0.671800	0.671200	0.670900	0.670400	0.669800	0.669200	0.668700	0.668200	0.667800	0.667500	0.667200	0.666900	0.666700	0.666500	0.666300	0.666200	0.666000	0.665900	0.665700	0.665600	0.665300	0.665100	0.664900	0.664700	0.664500	0.664300	0.664200	0.664000	0.663800	0.663700	0.663500
-144.000000	0.691700	0.684100	0.681800	0.680900	0.675200	0.680500	0.678100	0.676800	0.675900	0.675300	0.675100	0.674500	0.673900	0.673300	0.672700	0.672300	0.671900	0.671500	0.671200	0.670900	0.670700	0.670500	0.670300	0.670200	0.670000	0.669900	0.669700	0.669600	0.669400	0.669100	0.668900	0.668700	0.668500	0.668300	0.668100	0.668000	0.667800	0.667600	0.667500
-143.000000	0.695300	0.687500	0.685100	0.684200	0.678700	0.683800	0.681300	0.680000	0.679000	0.678500	0.678200	0.677700	0.677000	0.676400	0.675900	0.675400	0.675000	0.674600	0.674300	0.674000	0.673800	0.673600	0.673400	0.673200	0.673100	0.673000	0.672800	0.672700	0.672400	0.672200	0.672000	0.671800	0.671600	0.671400	0.671200	0.671000	0.670800	0.670700	0.670500
-142.000000	0.697900	0.689900	0.687400	0.686500	0.681200	0.686000	0.683500	0.682200	0.681200	0.680700	0.680400	0.679900	0.679200	0.678600	0.678000	0.677500	0.677100	0.676800	0.676400	0.676200	0.675900	0.675700	0.675500	0.675400	0.675200	0.675100	0.674900	0.674800	0.674500	0.674300	0.674100	0.673900	0.673700	0.673500	0.673300	0.673100	0.672900	0.672800	0.672600
-141.000000	0.699600	0.691400	0.688800	0.687900	0.682800	0.687400	0.684800	0.683500	0.682500	0.681900	0.681700	0.681100	0.680500	0.679800	0.679300	0.678800	0.678300	0.678000	0.677600	0.677400	0.677100	0.676900	0.676700	0.676600	0.676400	0.676300	0.676100	0.676000	0.675700	0.675500	0.675300	0.675000	0.674800	0.674600	0.674400	0.674300	0.674100	0.673900	0.673800
-140.000000	0.700400	0.691900	0.689300	0.688300	0.683400	0.687700	0.685200	0.683800	0.682800	0.682300	0.682000	0.681500	0.680800	0.680100	0.679600	0.679100	0.678600	0.678200	0.677900	0.677600	0.677400	0.677200	0.677000	0.676800	0.676700	0.676500	0.676400	0.676200	0.676000	0.675700	0.675500	0.675300	0.675100	0.674900	0.674700	0.674500	0.674300	0.674200	0.674000
-139.000000	0.700100	0.691500	0.688800	0.687700	0.683000	0.687200	0.684600	0.683200	0.682200	0.681700	0.681400	0.680900	0.680200	0.679500	0.678900	0.678400	0.678000	0.677600	0.677300	0.677000	0.676700	0.676500	0.676300	0.676200	0.676000	0.675900	0.675700	0.675600	0.675300	0.675100	0.674800	0.674600	0.674400	0.674200	0.674000	0.673800	0.673600	0.673500	0.673300
-138.000000	0.698900	0.690100	0.687400	0.686300	0.681700	0.685700	0.683100	0.681700	0.680700	0.680100	0.679900	0.679400	0.678600	0.678000	0.677400	0.676900	0.676400	0.676000	0.675700	0.675400	0.675200	0.674900	0.674800	0.674600	0.674500	0.674300	0.674200	0.674000	0.673700	0.673500	0.673300	0.673000	0.672800	0.672600	0.672400	0.672200	0.672000	0.671900	0.671700
-137.000000	0.696800	0.687800	0.685000	0.683900	0.679500	0.683300	0.680700	0.679300	0.678300	0.677700	0.677500	0.676900	0.676200	0.675500	0.675000	0.674400	0.674000	0.673600	0.673200	0.672900	0.672700	0.672500	0.672300	0.672100	0.672000	0.671800	0.671700	0.671500	0.671300	0.671000	0.670800	0.670500	0.670300	0.670100	0.669900	0.669700	0.669500	0.669400	0.669200
-136.000000	0.693800	0.684700	0.681800	0.680600	0.676300	0.680000	0.677400	0.676000	0.675000	0.674400	0.674200	0.673600	0.672900	0.672200	0.671600	0.671100	0.670600	0.670200	0.669900	0.669600	0.669300	0.669100	0.668900	0.668800	0.668600	0.668500	0.668300	0.668200	0.667900	0.667600	0.667400	0.667200	0.667000	0.666700	0.666500	0.666300	0.666200	0.666000	0.665800
-135.000000	0.689800	0.680600	0.677700	0.676400	0.672300	0.675800	0.673200	0.671800	0.670800	0.670200	0.670000	0.669400	0.668700	0.668000	0.667400	0.666900	0.666400	0.666000	0.665600	0.665300	0.665100	0.664900	0.664700	0.664500	0.664400	0.664200	0.664100	0.663900	0.663700	0.663400	0.663200	0.662900	0.662700	0.662500	0.662300	0.662100	0.661900	0.661700	0.661600
-134.000000	0.685000	0.675600	0.672600	0.671400	0.667300	0.670700	0.668100	0.666700	0.665700	0.665100	0.664900	0.664400	0.663600	0.662900	0.662300	0.661800	0.661300	0.660900	0.660500	0.660200	0.660000	0.659800	0.659600	0.659400	0.659300	0.659100	0.659000	0.658800	0.658600	0.658300	0.658100	0.657800	0.657600	0.657400	0.657200	0.657000	0.656800	0.656600	0.656400
-133.000000	0.679200	0.669700	0.666800	0.665400	0.661500	0.664700	0.662200	0.660700	0.659700	0.659200	0.659000	0.658400	0.657700	0.657000	0.656400	0.655800	0.655400	0.654900	0.654600	0.654300	0.654000	0.653800	0.653600	0.653500	0.653300	0.653200	0.653000	0.652900	0.652600	0.652400	0.652100	0.651900	0.651600	0.651400	0.651200	0.651000	0.650800	0.650700	0.650500
-132.000000	0.672600	0.663000	0.660000	0.658700	0.654900	0.658000	0.655400	0.654000	0.653000	0.652400	0.652200	0.651700	0.650900	0.650200	0.649600	0.649100	0.648600	0.648200	0.647800	0.647500	0.647200	0.647000	0.646800	0.646700	0.646600	0.646400	0.646300	0.646100	0.645800	0.645600	0.645300	0.645100	0.644900	0.644600	0.644400	0.644200	0.644000	0.643900	0.643700
-131.000000	0.665100	0.655500	0.652500	0.651100	0.647400	0.650300	0.647800	0.646400	0.645400	0.644800	0.644600	0.644100	0.643300	0.642600	0.642000	0.641500	0.641000	0.640600	0.640200	0.639900	0.639700	0.639400	0.639300	0.639100	0.639000	0.638800	0.638700	0.638500	0.638200	0.638000	0.637700	0.637500	0.637300	0.637000	0.636800	0.636600	0.636500	0.636300	0.636100
-130.000000	0.656800	0.647100	0.644100	0.642700	0.639100	0.641900	0.639400	0.638000	0.637000	0.636400	0.636200	0.635700	0.634900	0.634200	0.633600	0.633100	0.632600	0.632200	0.631800	0.631500	0.631300	0.631000	0.630900	0.630700	0.630600	0.630400	0.630300	0.630100	0.629900	0.629600	0.629400	0.629100	0.628900	0.628700	0.628500	0.628300	0.628100	0.627900	0.627700
-129.000000	0.647600	0.637900	0.634900	0.633500	0.630000	0.632700	0.630200	0.628800	0.627800	0.627200	0.627100	0.626500	0.625800	0.625100	0.624500	0.623900	0.623400	0.623000	0.622700	0.622400	0.622100	0.621900	0.621700	0.621600	0.621400	0.621300	0.621100	0.621000	0.620700	0.620400	0.620200	0.620000	0.619700	0.619500	0.619300	0.619100	0.618900	0.618700	0.618600
-128.000000	0.637700	0.628000	0.624900	0.623500	0.620100	0.622700	0.620200	0.618800	0.617800	0.617300	0.617100	0.616600	0.615800	0.615200	0.614500	0.614000	0.613500	0.613100	0.612700	0.612400	0.612200	0.612000	0.611800	0.611600	0.611500	0.611400	0.611200	0.611100	0.610800	0.610500	0.610300	0.610000	0.609800	0.609600	0.609400	0.609200	0.609000	0.608800	0.608700
-127.000000	0.626900	0.617300	0.614200	0.612800	0.609500	0.608700	0.609500	0.608100	0.607100	0.606600	0.606500	0.605900	0.605200	0.604500	0.603900	0.603300	0.602800	0.602400	0.602100	0.601800	0.601500	0.601300	0.601100	0.601000	0.600900	0.600700	0.600600	0.600400	0.600200	0.599900	0.599600	0.599400	0.599200	0.599000	0.598800	0.598600	0.598400	0.598200	0.598000
-126.000000	0.615400	0.605800	0.602800	0.601300	0.598100	0.597400	0.598100	0.596700	0.595700	0.595200	0.595100	0.594500	0.593800	0.593100	0.592500	0.591900	0.591500	0.591100	0.590700	0.590400	0.590200	0.589900	0.589800	0.589600	0.589500	0.589400	0.589200	0.589100	0.588800	0.588500	0.588300	0.588100	0.587800	0.587600	0.587400	0.587200	0.587000	0.586900	0.586700
-125.000000	0.603200	0.593600	0.590600	0.589200	0.586000	0.585300	0.585900	0.584600	0.583600	0.583100	0.583000	0.582400	0.581700	0.581000	0.580400	0.579900	0.579400	0.579000	0.578600	0.578300	0.578100	0.577900	0.577700	0.577600	0.577400	0.577300	0.577200	0.577000	0.576800	0.576500	0.576200	0.576000	0.575800	0.575600	0.575400	0.575200	0.575000	0.574800	0.574700
-124.000000	0.590300	0.580700	0.577700	0.576300	0.573200	0.572500	0.573100	0.571800	0.570800	0.570300	0.570200	0.569600	0.568900	0.568300	0.567600	0.567100	0.566600	0.566200	0.565900	0.565600	0.565400	0.565200	0.565000	0.564800	0.564700	0.564600	0.564400	0.564300	0.564000	0.563800	0.563500	0.563300	0.563100	0.562900	0.562700	0.562500	0.562300	0.562100	0.562000
-123.000000	0.576600	0.567200	0.564200	0.562800	0.559800	0.559100	0.559600	0.558300	0.557400	0.556900	0.556700	0.556200	0.555500	0.554800	0.554200	0.553700	0.553200	0.552800	0.552500	0.552200	0.552000	0.551800	0.551600	0.551500	0.551300	0.551200	0.551100	0.550900	0.550700	0.550400	0.550200	0.550000	0.549700	0.549500	0.549300	0.549100	0.549000	0.548800	0.548600
-122.000000	0.562300	0.553000	0.550000	0.548600	0.545700	0.545000	0.545500	0.544200	0.543300	0.542800	0.542700	0.542100	0.541400	0.540800	0.540200	0.539700	0.539200	0.538800	0.538500	0.538200	0.538000	0.537800	0.537600	0.537500	0.537300	0.537200	0.537100	0.536900	0.536700	0.536400	0.536200	0.536000	0.535800	0.535600	0.535400	0.535200	0.535000	0.534800	0.534700
-121.000000	0.547300	0.538100	0.535200	0.533800	0.531000	0.530300	0.530800	0.529500	0.528600	0.528100	0.528000	0.527500	0.526800	0.526100	0.525600	0.525000	0.524600	0.524200	0.523900	0.523600	0.523400	0.523200	0.523000	0.522900	0.522700	0.522600	0.522500	0.522400	0.522100	0.521900	0.521600	0.521400	0.521200	0.521000	0.520800	0.520600	0.520400	0.520300	0.520100
-120.000000	0.531700	0.522700	0.519800	0.518400	0.515700	0.515000	0.515400	0.514200	0.513300	0.512800	0.512700	0.512200	0.511500	0.510900	0.510300	0.509800	0.509400	0.509000	0.508700	0.508400	0.508200	0.508000	0.507800	0.507700	0.507600	0.507500	0.507300	0.507200	0.506900	0.506700	0.506500	0.506200	0.506000	0.505800	0.505700	0.505500	0.505300	0.505100	0.505000
-119.000000	0.515500	0.506600	0.503800	0.502500	0.499800	0.499200	0.499500	0.498300	0.497400	0.497000	0.496900	0.496400	0.495700	0.495100	0.494500	0.494000	0.493600	0.493200	0.492900	0.492600	0.492400	0.492200	0.492100	0.492000	0.491800	0.491700	0.491600	0.491500	0.491200	0.491000	0.490800	0.490500	0.490300	0.490100	0.490000	0.489800	0.489600	0.489500	0.489300
-118.000000	0.498700	0.490000	0.487300	0.484400	0.483400	0.482800	0.483100	0.481900	0.481000	0.480600	0.480500	0.480000	0.479400	0.478800	0.478200	0.477700	0.477300	0.476900	0.476600	0.476400	0.476100	0.476000	0.475800	0.475700	0.475600	0.475500	0.475300	0.475200	0.475000	0.474700	0.474500	0.474300	0.474100	0.473900	0.473700	0.473600	0.473400	0.473300	0.473100
-117.000000	0.481300	0.472900	0.470200	0.467400	0.466400	0.465800	0.466100	0.465000	0.464100	0.463700	0.463600	0.463100	0.462500	0.461900	0.461400	0.460900	0.460500	0.460100	0.459800	0.459600	0.459400	0.459200	0.459000	0.458900	0.458800	0.458700	0.458600	0.458500	0.458200	0.458000	0.457800	0.457600	0.457400	0.457200	0.457000	0.456900	0.456700	0.456500	0.456400
-116.000000	0.463500	0.455300	0.452700	0.449900	0.449000	0.448400	0.447400	0.447500	0.446700	0.446300	0.446200	0.445800	0.445200	0.444600	0.444100	0.443600	0.443200	0.442900	0.442600	0.442300	0.442100	0.441900	0.441800	0.441700	0.441600	0.441500	0.441400	0.441200	0.441000	0.440800	0.440600	0.440400	0.440200	0.440000	0.439800	0.439700	0.439500	0.439400	0.439200
-115.000000	0.445100	0.437100	0.434600	0.431900	0.431000	0.430500	0.429600	0.429700	0.428900	0.428500	0.428400	0.427900	0.427300	0.426800	0.426300	0.425800	0.425400	0.425100	0.424800	0.424600	0.424400	0.424200	0.424100	0.424000	0.423900	0.423800	0.423700	0.423500	0.423300	0.423100	0.422900	0.422700	0.422500	0.422400	0.422200	0.422000	0.421900	0.421700	0.421600
-114.000000	0.426300	0.418600	0.415100	0.413500	0.412700	0.412100	0.411200	0.411300	0.410600	0.410200	0.410100	0.409700	0.409100	0.408600	0.408100	0.407600	0.407300	0.406900	0.406700	0.406400	0.406200	0.406100	0.405900	0.405800	0.405700	0.405600	0.405500	0.405400	0.405200	0.405000	0.404800	0.404600	0.404400	0.404300	0.404100	0.404000	0.403800	0.403700	0.403500
-113.000000	0.407000	0.399500	0.396200	0.394700	0.393900	0.393300	0.392500	0.392600	0.391800	0.391500	0.391400	0.391000	0.390400	0.389900	0.389400	0.389000	0.388700	0.388300	0.388100	0.387900	0.387700	0.387500	0.387400	0.387300	0.387200	0.387100	0.387000	0.386900	0.386700	0.386500	0.386300	0.386100	0.385900	0.385800	0.385600	0.385500	0.385300	0.385200	0.385100
-112.000000	0.387200	0.379300	0.376900	0.375500	0.374700	0.374100	0.373300	0.372600	0.372700	0.372400	0.372300	0.371900	0.371400	0.370900	0.370400	0.370000	0.369700	0.369400	0.369100	0.368900	0.368700	0.368600	0.368500	0.368400	0.368300	0.368200	0.368100	0.368000	0.367800	0.367600	0.367400	0.367200	0.367100	0.366900	0.366800	0.366600	0.366500	0.366400	0.366200
-111.000000	0.366400	0.359500	0.357200	0.355900	0.355100	0.354600	0.353800	0.353100	0.352500	0.352900	0.352800	0.352500	0.352000	0.351500	0.351000	0.350700	0.350300	0.350000	0.349800	0.349600	0.349400	0.349300	0.349200	0.349100	0.349000	0.348900	0.348800	0.348700	0.348500	0.348300	0.348200	0.348000	0.347800	0.347700	0.347600	0.347400	0.347300	0.347200	0.347100
-110.000000	0.345900	0.339400	0.337200	0.335900	0.335200	0.334700	0.334000	0.333300	0.332700	0.333100	0.333000	0.332700	0.332200	0.331700	0.331300	0.331000	0.330700	0.330400	0.330100	0.329900	0.329800	0.329700	0.329500	0.329500	0.329400	0.329300	0.329200	0.329100	0.328900	0.328800	0.328600	0.328400	0.328300	0.328100	0.328000	0.327900	0.327800	0.327600	0.327500
-109.000000	0.325100	0.318900	0.316800	0.315600	0.314900	0.314500	0.313800	0.313100	0.312600	0.312400	0.312300	0.312600	0.312100	0.311700	0.311300	0.311000	0.310700	0.310400	0.310200	0.310000	0.309800	0.309700	0.309600	0.309500	0.309500	0.309400	0.309300	0.309200	0.309000	0.308900	0.308700	0.308600	0.308400	0.308300	0.308200	0.308000	0.307900	0.307800	0.307700
-108.000000	0.303900	0.298100	0.296200	0.295000	0.294400	0.294000	0.293300	0.292700	0.292200	0.292000	0.291900	0.291700	0.291300	0.291400	0.291000	0.290700	0.290400	0.290100	0.289900	0.289800	0.289600	0.289500	0.289400	0.289300	0.289200	0.289200	0.289100	0.289000	0.288900	0.288700	0.288600	0.288400	0.288300	0.288200	0.288000	0.287900	0.287800	0.287700	0.287600
-107.000000	0.282500	0.277000	0.275200	0.274200	0.273500	0.273200	0.272500	0.272000	0.271500	0.271300	0.271300	0.271000	0.270600	0.270300	0.270000	0.270100	0.269800	0.269600	0.269400	0.269300	0.269100	0.269000	0.268900	0.268800	0.268800	0.268700	0.268600	0.268600	0.268400	0.268300	0.268100	0.268000	0.267900	0.267800	0.267600	0.267500	0.267400	0.267300	0.267200
-106.000000	0.260800	0.255700	0.254000	0.253000	0.252500	0.252100	0.251600	0.251000	0.250600	0.250400	0.250400	0.250100	0.249800	0.249500	0.249200	0.248900	0.248600	0.248400	0.248300	0.248100	0.248400	0.248300	0.248200	0.248100	0.248100	0.248000	0.247900	0.247900	0.247700	0.247600	0.247500	0.247400	0.247200	0.247100	0.247000	0.246900	0.246800	0.246700	0.246600
-105.000000	0.238800	0.234200	0.232600	0.231700	0.231200	0.230900	0.230300	0.229800	0.229500	0.229300	0.229300	0.229000	0.228700	0.228400	0.228100	0.227900	0.227700	0.227500	0.227300	0.227200	0.227100	0.227000	0.226900	0.226900	0.226800	0.226800	0.227000	0.227000	0.226800	0.226700	0.226600	0.226500	0.226400	0.226300	0.226200	0.226100	0.226000	0.225900	0.225800
-104.000000	0.216700	0.212400	0.211000	0.210200	0.209700	0.209400	0.208900	0.208500	0.208100	0.208000	0.207900	0.207700	0.207400	0.207200	0.206900	0.206700	0.206500	0.206300	0.206200	0.206100	0.206000	0.205900	0.205800	0.205800	0.205700	0.205700	0.205600	0.205600	0.205500	0.205300	0.205200	0.205100	0.205000	0.205000	0.205200	0.205100	0.205000	0.204900	0.204900
-103.000000	0.194300	0.190500	0.189200	0.188500	0.188000	0.187800	0.187300	0.186900	0.186600	0.186500	0.186500	0.186300	0.186000	0.185800	0.185500	0.185300	0.185200	0.185000	0.184900	0.184800	0.184700	0.184600	0.184500	0.184500	0.184500	0.184400	0.184400	0.184300	0.184200	0.184100	0.184000	0.183900	0.183900	0.183800	0.183700	0.183600	0.183600	0.183500	0.183400
-102.000000	0.171800	0.168400	0.167300	0.166600	0.166200	0.166000	0.165600	0.165200	0.165000	0.164800	0.164800	0.164700	0.164400	0.164200	0.164000	0.163800	0.163700	0.163500	0.163400	0.163300	0.163200	0.163200	0.163100	0.163100	0.163100	0.163000	0.163000	0.162900	0.162800	0.162800	0.162700	0.162600	0.162500	0.162500	0.162400	0.162300	0.162300	0.162200	0.162100
-101.000000	0.149100	0.146200	0.145200	0.144600	0.144300	0.144100	0.143700	0.143400	0.143200	0.143100	0.143100	0.142900	0.142700	0.142500	0.142400	0.142200	0.142100	0.141900	0.141800	0.141800	0.141700	0.141600	0.141600	0.141600	0.141500	0.141500	0.141500	0.141400	0.141400	0.141300	0.141200	0.141100	0.141100	0.141000	0.141000	0.140900	0.140800	0.140800	0.140700
-100.000000	0.126300	0.123800	0.123000	0.122500	0.122200	0.122100	0.121800	0.121500	0.121300	0.121200	0.121200	0.121100	0.120900	0.120800	0.120600	0.120500	0.120400	0.120300	0.120200	0.120100	0.120100	0.120000	0.120000	0.119900	0.119900	0.119900	0.119900	0.119800	0.119800	0.119700	0.119600	0.119600	0.119500	0.119500	0.119400	0.119400	0.119300	0.119300	0.119300
-99.000000	0.103500	0.101400	0.100800	0.100400	0.100100	0.100000	0.099800	0.099500	0.099400	0.099300	0.099300	0.099200	0.099100	0.098900	0.098800	0.098700	0.098600	0.098500	0.098400	0.098400	0.098300	0.098300	0.098300	0.098300	0.098200	0.098200	0.098200	0.098200	0.098100	0.098100	0.098000	0.098000	0.097900	0.097900	0.097800	0.097800	0.097800	0.097700	0.097700
-98.000000	0.080600	0.079000	0.078400	0.078100	0.078000	0.077900	0.077700	0.077500	0.077400	0.077300	0.077300	0.077200	0.077100	0.077000	0.076900	0.076900	0.076800	0.076700	0.076700	0.076600	0.076600	0.076600	0.076500	0.076500	0.076500	0.076500	0.076500	0.076400	0.076400	0.076400	0.076300	0.076300	0.076300	0.076200	0.076200	0.076200	0.076100	0.076100	0.076100
-97.000000	0.057600	0.056500	0.056100	0.055900	0.055800	0.055700	0.055600	0.055400	0.055300	0.055300	0.055300	0.055300	0.055200	0.055100	0.055000	0.055000	0.054900	0.054900	0.054800	0.054800	0.054800	0.054800	0.054800	0.054700	0.054700	0.054700	0.054700	0.054700	0.054700	0.054600	0.054600	0.054600	0.054600	0.054500	0.054500	0.054500	0.054500	0.054500	0.054400
-96.000000	0.034600	0.034000	0.033700	0.033600	0.033500	0.033500	0.033400	0.033400	0.033300	0.033300	0.033300	0.033300	0.033200	0.033200	0.033100	0.033100	0.033100	0.033000	0.033000	0.033000	0.033000	0.033000	0.033000	0.033000	0.033000	0.033000	0.033000	0.033000	0.032900	0.032900	0.032900	0.032900	0.032900	0.032900	0.032800	0.032800	0.032800	0.032800	0.032800
-95.000000	0.011700	0.011500	0.011400	0.011400	0.011300	0.011400	0.011300	0.011300	0.011300	0.011300	0.011300	0.011300	0.011300	0.011300	0.011300	0.011200	0.011200	0.011200	0.011200	0.011200	0.011200	0.011200	0.011200	0.011200	0.011200	0.011200	0.011200	0.011200	0.011200	0.011200	0.011200	0.011200	0.011200	0.011200	0.011200	0.011200	0.011200	0.011200	0.011200
-94.000000	-0.011300	-0.011000	-0.010900	-0.010800	-0.010800	-0.010800	-0.010700	-0.010700	-0.010700	-0.010700	-0.010700	-0.010600	-0.010600	-0.010600	-0.010600	-0.010600	-0.010600	-0.010600	-0.010500	-0.010500	-0.010500	-0.010500	-0.010500	-0.010500	-0.010500	-0.010500	-0.010500	-0.010500	-0.010500	-0.010500	-0.010500	-0.010400	-0.010400	-0.010400	-0.010400	-0.010400	-0.010400	-0.010400	-0.010400
-93.000000	-0.034100	-0.033400	-0.033100	-0.033000	-0.032900	-0.032800	-0.032800	-0.032700	-0.032600	-0.032600	-0.032600	-0.032500	-0.032500	-0.032400	-0.032400	-0.032300	-0.032300	-0.032300	-0.032200	-0.032200	-0.032200	-0.032200	-0.032200	-0.032200	-0.032100	-0.032100	-0.032100	-0.032100	-0.032100	-0.032100	-0.032000	-0.032000	-0.032000	-0.032000	-0.032000	-0.032000	-0.032000	-0.031900	-0.031900
-92.000000	-0.056900	-0.055700	-0.055300	-0.055100	-0.054900	-0.054800	-0.054700	-0.054600	-0.054500	-0.054400	-0.054400	-0.054300	-0.054200	-0.054200	-0.054100	-0.054000	-0.054000	-0.053900	-0.053900	-0.053800	-0.053800	-0.053800	-0.053800	-0.053700	-0.053700	-0.053700	-0.053700	-0.053700	-0.053600	-0.053600	-0.053600	-0.053500	-0.053500	-0.053500	-0.053500	-0.053400	-0.053400	-0.053400	-0.053400
-91.000000	-0.079600	-0.077900	-0.077400	-0.077000	-0.076800	-0.076700	-0.076500	-0.076300	-0.076200	-0.076100	-0.076100	-0.076000	-0.075900	-0.075800	-0.075700	-0.075600	-0.075500	-0.075400	-0.075400	-0.075300	-0.075300	-0.075300	-0.075200	-0.075200	-0.075200	-0.075200	-0.075100	-0.075100	-0.075100	-0.075000	-0.075000	-0.074900	-0.074900	-0.074900	-0.074800	-0.074800	-0.074800	-0.074700	-0.074700
-90.000000	-0.102200	-0.100000	-0.099300	-0.098900	-0.098600	-0.098500	-0.098200	-0.098000	-0.097800	-0.097700	-0.097700	-0.097600	-0.097400	-0.097300	-0.097200	-0.097000	-0.097000	-0.096900	-0.096800	-0.096700	-0.096700	-0.096600	-0.096600	-0.096600	-0.096500	-0.096500	-0.096500	-0.096400	-0.096400	-0.096300	-0.096300	-0.096200	-0.096200	-0.096100	-0.096100	-0.096100	-0.096000	-0.096000	-0.095900
-89.000000	-0.124600	-0.122000	-0.121100	-0.120600	-0.120300	-0.120100	-0.119800	-0.119500	-0.119300	-0.119200	-0.119100	-0.119000	-0.118800	-0.118700	-0.118500	-0.118400	-0.118200	-0.118100	-0.118100	-0.118000	-0.117900	-0.117900	-0.117800	-0.117800	-0.117700	-0.117700	-0.117700	-0.117600	-0.117600	-0.117500	-0.117400	-0.117400	-0.117300	-0.117300	-0.117200	-0.117200	-0.117100	-0.117100	-0.117000
-88.000000	-0.146800	-0.143700	-0.142700	-0.142100	-0.141700	-0.141500	-0.141200	-0.140800	-0.140600	-0.140500	-0.140400	-0.140300	-0.140100	-0.139900	-0.139700	-0.139500	-0.139400	-0.139300	-0.139100	-0.139100	-0.139000	-0.138900	-0.138900	-0.138800	-0.138800	-0.138700	-0.138700	-0.138700	-0.138600	-0.138500	-0.138400	-0.138400	-0.138300	-0.138200	-0.138200	-0.138100	-0.138000	-0.138000	-0.137900
-87.000000	-0.168800	-0.165300	-0.164100	-0.163400	-0.163000	-0.162800	-0.162400	-0.162000	-0.161700	-0.161600	-0.161500	-0.161400	-0.161100	-0.160900	-0.160700	-0.160500	-0.160300	-0.160200	-0.160100	-0.160000	-0.159900	-0.159800	-0.159700	-0.159700	-0.159600	-0.159600	-0.159600	-0.159500	-0.159400	-0.159300	-0.159200	-0.159200	-0.159100	-0.159000	-0.158900	-0.158900	-0.158800	-0.158700	-0.158700
-86.000000	-0.190600	-0.186700	-0.185300	-0.184600	-0.184100	-0.183800	-0.183400	-0.183000	-0.182600	-0.182500	-0.182400	-0.182200	-0.182000	-0.181700	-0.181500	-0.181200	-0.181100	-0.180900	-0.180800	-0.180700	-0.180600	-0.180500	-0.180400	-0.180400	-0.180300	-0.180300	-0.180200	-0.180200	-0.180000	-0.179900	-0.179800	-0.179800	-0.179700	-0.179600	-0.179500	-0.179400	-0.179400	-0.179300	-0.179200
-85.000000	-0.212200	-0.207800	-0.206300	-0.205500	-0.205000	-0.204600	-0.204100	-0.203700	-0.203300	-0.203100	-0.203100	-0.202900	-0.202600	-0.202300	-0.202000	-0.201800	-0.201600	-0.201400	-0.201300	-0.201100	-0.201000	-0.200900	-0.200900	-0.200800	-0.200800	-0.200700	-0.200600	-0.200600	-0.200500	-0.200300	-0.200200	-0.200100	-0.200000	-0.199900	-0.199900	-0.199800	-0.199700	-0.199600	-0.199600
-84.000000	-0.233500	-0.228700	-0.227100	-0.226100	-0.225600	-0.225200	-0.224700	-0.224200	-0.223800	-0.223600	-0.223500	-0.223300	-0.223000	-0.222600	-0.222300	-0.222100	-0.221900	-0.221700	-0.221500	-0.221400	-0.221300	-0.221200	-0.221100	-0.221000	-0.221000	-0.220900	-0.220800	-0.220800	-0.220600	-0.220500	-0.220400	-0.220300	-0.220200	-0.220100	-0.220000	-0.219900	-0.219800	-0.219700	-0.219600
-83.000000	-0.254500	-0.249300	-0.247600	-0.246500	-0.245900	-0.245500	-0.244900	-0.244400	-0.244000	-0.243700	-0.243700	-0.243400	-0.243100	-0.242700	-0.242400	-0.242100	-0.241900	-0.241700	-0.241500	-0.241400	-0.241200	-0.241100	-0.241000	-0.241000	-0.240900	-0.240800	-0.240800	-0.240700	-0.240600	-0.240400	-0.240300	-0.240200	-0.240100	-0.240000	-0.239800	-0.239700	-0.239700	-0.239600	-0.239500
-82.000000	-0.275200	-0.269600	-0.267700	-0.266600	-0.266000	-0.265600	-0.264900	-0.264300	-0.263900	-0.263600	-0.263600	-0.263300	-0.262900	-0.262500	-0.262200	-0.261900	-0.261700	-0.261400	-0.261200	-0.261100	-0.260900	-0.260800	-0.260700	-0.260700	-0.260600	-0.260500	-0.260400	-0.260400	-0.260200	-0.260100	-0.259900	-0.259800	-0.259700	-0.259600	-0.259400	-0.259300	-0.259200	-0.259100	-0.259000
-81.000000	-0.295700	-0.289600	-0.287600	-0.286400	-0.285700	-0.285300	-0.284600	-0.284000	-0.283500	-0.283200	-0.283200	-0.282900	-0.282500	-0.282100	-0.281700	-0.281400	-0.281100	-0.280900	-0.280700	-0.280500	-0.280300	-0.280200	-0.280100	-0.280000	-0.280000	-0.279900	-0.279800	-0.279700	-0.279600	-0.279400	-0.279300	-0.279100	-0.279000	-0.278900	-0.278700	-0.278600	-0.278500	-0.278400	-0.278300
-80.000000	-0.315700	-0.309300	-0.307200	-0.305900	-0.305200	-0.304700	-0.304000	-0.303300	-0.302800	-0.302500	-0.302500	-0.302100	-0.301700	-0.301300	-0.300900	-0.300500	-0.300300	-0.300000	-0.299800	-0.299600	-0.299400	-0.299300	-0.299200	-0.299100	-0.299000	-0.299000	-0.298900	-0.298800	-0.298600	-0.298400	-0.298300	-0.298100	-0.298000	-0.297900	-0.297700	-0.297600	-0.297500	-0.297400	-0.297300
-79.000000	-0.335400	-0.328700	-0.326400	-0.325000	-0.324300	-0.323800	-0.323000	-0.322300	-0.321700	-0.321500	-0.321400	-0.321100	-0.320600	-0.320100	-0.319700	-0.319400	-0.319100	-0.318800	-0.318600	-0.318400	-0.318200	-0.318100	-0.318000	-0.317900	-0.317800	-0.317700	-0.317600	-0.317500	-0.317300	-0.317200	-0.317000	-0.316800	-0.316700	-0.316500	-0.316400	-0.316300	-0.316200	-0.316000	-0.315900
-78.000000	-0.354800	-0.347600	-0.345200	-0.343800	-0.343000	-0.342500	-0.341700	-0.340900	-0.340400	-0.340000	-0.340000	-0.339600	-0.339100	-0.338700	-0.338200	-0.337900	-0.337500	-0.337300	-0.337000	-0.336800	-0.336600	-0.336500	-0.336400	-0.336300	-0.336200	-0.336100	-0.336000	-0.335900	-0.335700	-0.335500	-0.335400	-0.335200	-0.335000	-0.334900	-0.334700	-0.334600	-0.334500	-0.334300	-0.334200
-77.000000	-0.373700	-0.366200	-0.363700	-0.362200	-0.361400	-0.360800	-0.360000	-0.359200	-0.358600	-0.358300	-0.358200	-0.357900	-0.357300	-0.356800	-0.356400	-0.356000	-0.355600	-0.355300	-0.355100	-0.354900	-0.354700	-0.354500	-0.354400	-0.354300	-0.354200	-0.354100	-0.354000	-0.353900	-0.353700	-0.353500	-0.353400	-0.353200	-0.353000	-0.352900	-0.352700	-0.352600	-0.352400	-0.352300	-0.352200
-76.000000	-0.392200	-0.384400	-0.381800	-0.380200	-0.379400	-0.378800	-0.377900	-0.377100	-0.376500	-0.376100	-0.376100	-0.375700	-0.375100	-0.374600	-0.374100	-0.373700	-0.373400	-0.373100	-0.372800	-0.372600	-0.372400	-0.372200	-0.372100	-0.372000	-0.371900	-0.371800	-0.371700	-0.371600	-0.371400	-0.371200	-0.371000	-0.370800	-0.370600	-0.370500	-0.370300	-0.370200	-0.370000	-0.369900	-0.369800
-75.000000	-0.410300	-0.402200	-0.399500	-0.397900	-0.396900	-0.396300	-0.395400	-0.394600	-0.393900	-0.393600	-0.393500	-0.393100	-0.392500	-0.392000	-0.391500	-0.391100	-0.390700	-0.390400	-0.390100	-0.389900	-0.389700	-0.389500	-0.389400	-0.389300	-0.389200	-0.389100	-0.389000	-0.388800	-0.388600	-0.388400	-0.388200	-0.388000	-0.387900	-0.387700	-0.387500	-0.387400	-0.387200	-0.387100	-0.386900
-74.000000	-0.427900	-0.419500	-0.416700	-0.415000	-0.414100	-0.413500	-0.412500	-0.411600	-0.410900	-0.410600	-0.410500	-0.410100	-0.409500	-0.409000	-0.408500	-0.408000	-0.407600	-0.407300	-0.407000	-0.406800	-0.406600	-0.406400	-0.406300	-0.406100	-0.406000	-0.405900	-0.405800	-0.405700	-0.405500	-0.405300	-0.405100	-0.404900	-0.404700	-0.404500	-0.404300	-0.404200	-0.404000	-0.403900	-0.403700
-73.000000	-0.445100	-0.436400	-0.433500	-0.431800	-0.430800	-0.430200	-0.429200	-0.428300	-0.427600	-0.427200	-0.427100	-0.426700	-0.426100	-0.425500	-0.425000	-0.424500	-0.424100	-0.423800	-0.423500	-0.423200	-0.423000	-0.422800	-0.422700	-0.422600	-0.422500	-0.422400	-0.422300	-0.422100	-0.421900	-0.421700	-0.421500	-0.421300	-0.421100	-0.420900	-0.420700	-0.420500	-0.420400	-0.420200	-0.420100
-72.000000	-0.461800	-0.452900	-0.449900	-0.448100	-0.447100	-0.446400	-0.445400	-0.444500	-0.443700	-0.443300	-0.443300	-0.442800	-0.442200	-0.441600	-0.441100	-0.440600	-0.440200	-0.439800	-0.439500	-0.439300	-0.439000	-0.438900	-0.438700	-0.438600	-0.438500	-0.438400	-0.438300	-0.438100	-0.437900	-0.437700	-0.437400	-0.437200	-0.437000	-0.436800	-0.436700	-0.436500	-0.436300	-0.436200	-0.436000
-71.000000	-0.478000	-0.468800	-0.465700	-0.463900	-0.462800	-0.462200	-0.461100	-0.460200	-0.459400	-0.459000	-0.458900	-0.458500	-0.457800	-0.457200	-0.456700	-0.456200	-0.455800	-0.455400	-0.455100	-0.454800	-0.454600	-0.454400	-0.454300	-0.454100	-0.454000	-0.453900	-0.453800	-0.453700	-0.453400	-0.453200	-0.453000	-0.452700	-0.452500	-0.452300	-0.452200	-0.452000	-0.451800	-0.451700	-0.451500
-70.000000	-0.493700	-0.484300	-0.481100	-0.479200	-0.478200	-0.477500	-0.476400	-0.475400	-0.474600	-0.474200	-0.474200	-0.473700	-0.473000	-0.472400	-0.471800	-0.471300	-0.470900	-0.470500	-0.470200	-0.469900	-0.469700	-0.469500	-0.469400	-0.469200	-0.469100	-0.469000	-0.468900	-0.468700	-0.468500	-0.468200	-0.468000	-0.467800	-0.467600	-0.467400	-0.467200	-0.467000	-0.466800	-0.466700	-0.466500
-69.000000	-0.508900	-0.499200	-0.496000	-0.494100	-0.493000	-0.492200	-0.491200	-0.490100	-0.489400	-0.488900	-0.488900	-0.488400	-0.487700	-0.487100	-0.486500	-0.486000	-0.485500	-0.485200	-0.484800	-0.484600	-0.484300	-0.484100	-0.484000	-0.483800	-0.483700	-0.483600	-0.483500	-0.483300	-0.483100	-0.482800	-0.482600	-0.482400	-0.482100	-0.481900	-0.481800	-0.481600	-0.481400	-0.481200	-0.481100
-68.000000	-0.523500	-0.513600	-0.510300	-0.508400	-0.507300	-0.506500	-0.505400	-0.504400	-0.503600	-0.503200	-0.503100	-0.502600	-0.501900	-0.501300	-0.500700	-0.500100	-0.499700	-0.499300	-0.499000	-0.498700	-0.498400	-0.498200	-0.498100	-0.497900	-0.497800	-0.497700	-0.497600	-0.497400	-0.497200	-0.496900	-0.496700	-0.496400	-0.496200	-0.496000	-0.495800	-0.495600	-0.495400	-0.495300	-0.495100
-67.000000	-0.537500	-0.527500	-0.524200	-0.522200	-0.521000	-0.520300	-0.519100	-0.518100	-0.517300	-0.516900	-0.516800	-0.516300	-0.515600	-0.514900	-0.514300	-0.513800	-0.513300	-0.512900	-0.512600	-0.512300	-0.512000	-0.511800	-0.511700	-0.511500	-0.511400	-0.511300	-0.511200	-0.511000	-0.510700	-0.510500	-0.510200	-0.510000	-0.509800	-0.509600	-0.509400	-0.509200	-0.509000	-0.508800	-0.508700
-66.000000	-0.551000	-0.540900	-0.537400	-0.535400	-0.534300	-0.533500	-0.532300	-0.531300	-0.530500	-0.530000	-0.529900	-0.529400	-0.528700	-0.528000	-0.527400	-0.526900	-0.526400	-0.526000	-0.525700	-0.525400	-0.525100	-0.524900	-0.524800	-0.524600	-0.524500	-0.524400	-0.524200	-0.524100	-0.523800	-0.523500	-0.523300	-0.523100	-0.522800	-0.522600	-0.522400	-0.522200	-0.522000	-0.521900	-0.521700
-65.000000	-0.563900	-0.553600	-0.550200	-0.548100	-0.546900	-0.546200	-0.545000	-0.543900	-0.543100	-0.542600	-0.542600	-0.542000	-0.541300	-0.540600	-0.540000	-0.539500	-0.539000	-0.538600	-0.538200	-0.537900	-0.537700	-0.537500	-0.537300	-0.537200	-0.537000	-0.536900	-0.536800	-0.536600	-0.536300	-0.536100	-0.535800	-0.535600	-0.535400	-0.535100	-0.534900	-0.534700	-0.534500	-0.534400	-0.534200
-64.000000	-0.576300	-0.565800	-0.562300	-0.560200	-0.559000	-0.558300	-0.557100	-0.556000	-0.555100	-0.554700	-0.554600	-0.554100	-0.553400	-0.552700	-0.552000	-0.551500	-0.551000	-0.550600	-0.550200	-0.549900	-0.549700	-0.549500	-0.549300	-0.549200	-0.549000	-0.548900	-0.548800	-0.548600	-0.548300	-0.548100	-0.547800	-0.547600	-0.547300	-0.547100	-0.546900	-0.546700	-0.546500	-0.546300	-0.546200
-63.000000	-0.588000	-0.577400	-0.573900	-0.571800	-0.570600	-0.569800	-0.568600	-0.567500	-0.566600	-0.566200	-0.566100	-0.565600	-0.564800	-0.564100	-0.563500	-0.562900	-0.562500	-0.562000	-0.561700	-0.561400	-0.561100	-0.560900	-0.560700	-0.560600	-0.560500	-0.560300	-0.560200	-0.560000	-0.559700	-0.559500	-0.559200	-0.559000	-0.558700	-0.558500	-0.558300	-0.558100	-0.557900	-0.557700	-0.557600
-62.000000	-0.599100	-0.588400	-0.584900	-0.582700	-0.581500	-0.580700	-0.579500	-0.578400	-0.577600	-0.577100	-0.577000	-0.576500	-0.575700	-0.575000	-0.574400	-0.573800	-0.573300	-0.572900	-0.572600	-0.572200	-0.572000	-0.571800	-0.571600	-0.571500	-0.571300	-0.571200	-0.571000	-0.570900	-0.570600	-0.570300	-0.570100	-0.569800	-0.569600	-0.569400	-0.569100	-0.568900	-0.568800	-0.568600	-0.568400
-61.000000	-0.609500	-0.598800	-0.595200	-0.593100	-0.591900	-0.591100	-0.589900	-0.588800	-0.587900	-0.587400	-0.587300	-0.586800	-0.586000	-0.585300	-0.584700	-0.584100	-0.583600	-0.583200	-0.582800	-0.582500	-0.582300	-0.582100	-0.581900	-0.581700	-0.581600	-0.581500	-0.581300	-0.581200	-0.580900	-0.580600	-0.580300	-0.580100	-0.579900	-0.579600	-0.579400	-0.579200	-0.579000	-0.578800	-0.578700
-60.000000	-0.619300	-0.608600	-0.605000	-0.602800	-0.601600	-0.600800	-0.599600	-0.598500	-0.597600	-0.597100	-0.597000	-0.596500	-0.595700	-0.595000	-0.594400	-0.593800	-0.593300	-0.592900	-0.592500	-0.592200	-0.592000	-0.591800	-0.591600	-0.591400	-0.591300	-0.591100	-0.591000	-0.590800	-0.590600	-0.590300	-0.590000	-0.589800	-0.589500	-0.589300	-0.589100	-0.588900	-0.588700	-0.588500	-0.588300
-59.000000	-0.628500	-0.617700	-0.614100	-0.612000	-0.610700	-0.609900	-0.608700	-0.607600	-0.606700	-0.606200	-0.606100	-0.605600	-0.604800	-0.604100	-0.603500	-0.602900	-0.602400	-0.602000	-0.601600	-0.601300	-0.601100	-0.600800	-0.600700	-0.600500	-0.600400	-0.600200	-0.600100	-0.599900	-0.599600	-0.599400	-0.599100	-0.598800	-0.598600	-0.598400	-0.598200	-0.598000	-0.597800	-0.597600	-0.597400
-58.000000	-0.637000	-0.626200	-0.622600	-0.620500	-0.619200	-0.618400	-0.617200	-0.616100	-0.615200	-0.614700	-0.614600	-0.614100	-0.613300	-0.612600	-0.612000	-0.611400	-0.610900	-0.610500	-0.610100	-0.609800	-0.609500	-0.609300	-0.609100	-0.609000	-0.608800	-0.608700	-0.608600	-0.608400	-0.608100	-0.607800	-0.607600	-0.607300	-0.607100	-0.606800	-0.606600	-0.606400	-0.606200	-0.606000	-0.605900
-57.000000	-0.644900	-0.634100	-0.630400	-0.628300	-0.627100	-0.626300	-0.625000	-0.623900	-0.623000	-0.622600	-0.622500	-0.621900	-0.621200	-0.620500	-0.619800	-0.619200	-0.618700	-0.618300	-0.617900	-0.617600	-0.617400	-0.617200	-0.617000	-0.616800	-0.616700	-0.616500	-0.616400	-0.616200	-0.615900	-0.615700	-0.615400	-0.615200	-0.614900	-0.614700	-0.614500	-0.614300	-0.614100	-0.613900	-0.613700
-56.000000	-0.652000	-0.641300	-0.637600	-0.635500	-0.634300	-0.633400	-0.632200	-0.631100	-0.630300	-0.629800	-0.629700	-0.629100	-0.628400	-0.627700	-0.627000	-0.626500	-0.626000	-0.625500	-0.625200	-0.624900	-0.624600	-0.624400	-0.624200	-0.624000	-0.623900	-0.623800	-0.623600	-0.623500	-0.623200	-0.622900	-0.622600	-0.622400	-0.622100	-0.621900	-0.621700	-0.621500	-0.621300	-0.621100	-0.620900
-55.000000	-0.658500	-0.647800	-0.644200	-0.642000	-0.640800	-0.640000	-0.638800	-0.637700	-0.636800	-0.636300	-0.636200	-0.635700	-0.634900	-0.634200	-0.633600	-0.633000	-0.632500	-0.632100	-0.631700	-0.631400	-0.631200	-0.630900	-0.630800	-0.630600	-0.630500	-0.630300	-0.630200	-0.630000	-0.629700	-0.629500	-0.629200	-0.628900	-0.628700	-0.628500	-0.628300	-0.628100	-0.627900	-0.627700	-0.627500
-54.000000	-0.664300	-0.653600	-0.650000	-0.647900	-0.646700	-0.645900	-0.644700	-0.643600	-0.642700	-0.642200	-0.642100	-0.641600	-0.640800	-0.640100	-0.639500	-0.638900	-0.638400	-0.638000	-0.637600	-0.637300	-0.637100	-0.636900	-0.636700	-0.636500	-0.636400	-0.636200	-0.636100	-0.635900	-0.635700	-0.635400	-0.635100	-0.634900	-0.634600	-0.634400	-0.634200	-0.634000	-0.633800	-0.633600	-0.633400
-53.000000	-0.669400	-0.658800	-0.655200	-0.653100	-0.651900	-0.651100	-0.649900	-0.648800	-0.647900	-0.647500	-0.647400	-0.646800	-0.646100	-0.645400	-0.644700	-0.644200	-0.643700	-0.643300	-0.642900	-0.642600	-0.642300	-0.642100	-0.641900	-0.641800	-0.641600	-0.641500	-0.641400	-0.641200	-0.640900	-0.640600	-0.640400	-0.640100	-0.639900	-0.639700	-0.639500	-0.639300	-0.639100	-0.638900	-0.638700
-52.000000	-0.673700	-0.663200	-0.659700	-0.657600	-0.656400	-0.655600	-0.654400	-0.653300	-0.652500	-0.652000	-0.651900	-0.651400	-0.650600	-0.649900	-0.649300	-0.648800	-0.648300	-0.647900	-0.647500	-0.647200	-0.646900	-0.646700	-0.646500	-0.646400	-0.646200	-0.646100	-0.646000	-0.645800	-0.645500	-0.645300	-0.645000	-0.644700	-0.644500	-0.644300	-0.644100	-0.643900	-0.643700	-0.643500	-0.643300
-51.000000	-0.677400	-0.667000	-0.663500	-0.661400	-0.660300	-0.659400	-0.658300	-0.657200	-0.656400	-0.655900	-0.655800	-0.655300	-0.654500	-0.653800	-0.653200	-0.652700	-0.652200	-0.651800	-0.651400	-0.651100	-0.650900	-0.650600	-0.650500	-0.650300	-0.650200	-0.650000	-0.649900	-0.649700	-0.649500	-0.649200	-0.648900	-0.648700	-0.648500	-0.648200	-0.648000	-0.647800	-0.647600	-0.647500	-0.647300
-50.000000	-0.680400	-0.670100	-0.666600	-0.664600	-0.663400	-0.662600	-0.661400	-0.660400	-0.659600	-0.659100	-0.659000	-0.658500	-0.657700	-0.657000	-0.656400	-0.655900	-0.655400	-0.655000	-0.654700	-0.654400	-0.654100	-0.653900	-0.653700	-0.653600	-0.653400	-0.653300	-0.653100	-0.653000	-0.652700	-0.652400	-0.652200	-0.652000	-0.651700	-0.651500	-0.651300	-0.651100	-0.650900	-0.650700	-0.650600
-49.000000	-0.682600	-0.672500	-0.669000	-0.667000	-0.665800	-0.665000	-0.663900	-0.662900	-0.662100	-0.661600	-0.661500	-0.661000	-0.660200	-0.659600	-0.659000	-0.658400	-0.658000	-0.657600	-0.657200	-0.656900	-0.656700	-0.656400	-0.656300	-0.656100	-0.656000	-0.655800	-0.655700	-0.655600	-0.655300	-0.655000	-0.654800	-0.654500	-0.654300	-0.654100	-0.653900	-0.653700	-0.653500	-0.653300	-0.653200
-48.000000	-0.684100	-0.674100	-0.670700	-0.668700	-0.667600	-0.666800	-0.665700	-0.664700	-0.663900	-0.663400	-0.663300	-0.662800	-0.662000	-0.661400	-0.660800	-0.660300	-0.659800	-0.659400	-0.659100	-0.658800	-0.658500	-0.658300	-0.658100	-0.658000	-0.657900	-0.657700	-0.657600	-0.657400	-0.657200	-0.656900	-0.656700	-0.656400	-0.656200	-0.656000	-0.655800	-0.655600	-0.655400	-0.655200	-0.655100
-47.000000	-0.684900	-0.675100	-0.671700	-0.669800	-0.668600	-0.667900	-0.666800	-0.665700	-0.665000	-0.664500	-0.664400	-0.663900	-0.663200	-0.662500	-0.661900	-0.661400	-0.661000	-0.660600	-0.660200	-0.660000	-0.659700	-0.659500	-0.659300	-0.659200	-0.659000	-0.658900	-0.658800	-0.658600	-0.658400	-0.658100	-0.657900	-0.657600	-0.657400	-0.657200	-0.657000	-0.656800	-0.656600	-0.656500	-0.656300
-46.000000	-0.685000	-0.675300	-0.672000	-0.670100	-0.669000	-0.668200	-0.667100	-0.666100	-0.665400	-0.664900	-0.664800	-0.664300	-0.663600	-0.663000	-0.662400	-0.661900	-0.661400	-0.661000	-0.660700	-0.660400	-0.660200	-0.660000	-0.659800	-0.659700	-0.659500	-0.659400	-0.659300	-0.659100	-0.658800	-0.658600	-0.658400	-0.658100	-0.657900	-0.657700	-0.657500	-0.657300	-0.657200	-0.657000	-0.656800
-45.000000	-0.684300	-0.674800	-0.671600	-0.669700	-0.668600	-0.667800	-0.666800	-0.665800	-0.665100	-0.664600	-0.664500	-0.664000	-0.663300	-0.662700	-0.662100	-0.661600	-0.661200	-0.660800	-0.660500	-0.660200	-0.660000	-0.659800	-0.659600	-0.659500	-0.659300	-0.659200	-0.659000	-0.658900	-0.658600	-0.658400	-0.658200	-0.657900	-0.657700	-0.657500	-0.657300	-0.657200	-0.657000	-0.656800	-0.656700
-44.000000	-0.682900	-0.673600	-0.670400	-0.668600	-0.667500	-0.666800	-0.665700	-0.664800	-0.664000	-0.663600	-0.663500	-0.663000	-0.662300	-0.661700	-0.661200	-0.660700	-0.660200	-0.659900	-0.659600	-0.659300	-0.659100	-0.658900	-0.658700	-0.658500	-0.658400	-0.658300	-0.658100	-0.658000	-0.657700	-0.657500	-0.657300	-0.657100	-0.656900	-0.656700	-0.656500	-0.656300	-0.656100	-0.656000	-0.655800
-43.000000	-0.680800	-0.671700	-0.668600	-0.666800	-0.665700	-0.665000	-0.664000	-0.663000	-0.662300	-0.661900	-0.661800	-0.661300	-0.660600	-0.660000	-0.659500	-0.659000	-0.658600	-0.658200	-0.657900	-0.657700	-0.657400	-0.657200	-0.657100	-0.656900	-0.656800	-0.656700	-0.656500	-0.656400	-0.656100	-0.655900	-0.655700	-0.655500	-0.655300	-0.655100	-0.654900	-0.654700	-0.654600	-0.654400	-0.654300
-42.000000	-0.677900	-0.669000	-0.666000	-0.664300	-0.663200	-0.662500	-0.661500	-0.660600	-0.659900	-0.659500	-0.659300	-0.658900	-0.658200	-0.657600	-0.657100	-0.656600	-0.656200	-0.655900	-0.655600	-0.655300	-0.655100	-0.654900	-0.654700	-0.654600	-0.654500	-0.654300	-0.654200	-0.654100	-0.653800	-0.653600	-0.653400	-0.653200	-0.653000	-0.652800	-0.652600	-0.652400	-0.652300	-0.652100	-0.652000
-41.000000	-0.674400	-0.665700	-0.662700	-0.661000	-0.660000	-0.659300	-0.658300	-0.657400	-0.656800	-0.656300	-0.656200	-0.655700	-0.655100	-0.654500	-0.654000	-0.653600	-0.653200	-0.652800	-0.652600	-0.652300	-0.652100	-0.651900	-0.651700	-0.651600	-0.651500	-0.651300	-0.651200	-0.651100	-0.650800	-0.650600	-0.650400	-0.650200	-0.650000	-0.649800	-0.649600	-0.649500	-0.649300	-0.649200	-0.649000
-40.000000	-0.670100	-0.661600	-0.658700	-0.657100	-0.656100	-0.655400	-0.654400	-0.653600	-0.652900	-0.652500	-0.652400	-0.651900	-0.651300	-0.650800	-0.650300	-0.649800	-0.649400	-0.649100	-0.648800	-0.648600	-0.648400	-0.648200	-0.648000	-0.647900	-0.647700	-0.647600	-0.647500	-0.647400	-0.647100	-0.646900	-0.646700	-0.646500	-0.646300	-0.646100	-0.646000	-0.645800	-0.645700	-0.645500	-0.645400
-39.000000	-0.665100	-0.656900	-0.654000	-0.652400	-0.651500	-0.650800	-0.649900	-0.649000	-0.648400	-0.648000	-0.647900	-0.647400	-0.646800	-0.646300	-0.645800	-0.645400	-0.645000	-0.644700	-0.644400	-0.644200	-0.643900	-0.643800	-0.643600	-0.643500	-0.643300	-0.643200	-0.643100	-0.643000	-0.642700	-0.642500	-0.642300	-0.642100	-0.641900	-0.641800	-0.641600	-0.641500	-0.641300	-0.641200	-0.641000
-38.000000	-0.659400	-0.651400	-0.648700	-0.647100	-0.646200	-0.645500	-0.644600	-0.643800	-0.643200	-0.642800	-0.642600	-0.642200	-0.641600	-0.641100	-0.640600	-0.640200	-0.639900	-0.639500	-0.639300	-0.639000	-0.638800	-0.638600	-0.638500	-0.638400	-0.638200	-0.638100	-0.638000	-0.637900	-0.637700	-0.637400	-0.637200	-0.637100	-0.636900	-0.636700	-0.636600	-0.636400	-0.636300	-0.636100	-0.636000
-37.000000	-0.653000	-0.645300	-0.642600	-0.641100	-0.640200	-0.639500	-0.638600	-0.637900	-0.637300	-0.636900	-0.636700	-0.636300	-0.635700	-0.635200	-0.634800	-0.634400	-0.634000	-0.633700	-0.633500	-0.633200	-0.633000	-0.632900	-0.632700	-0.632600	-0.632500	-0.632300	-0.632200	-0.632100	-0.631900	-0.631700	-0.631500	-0.631300	-0.631100	-0.631000	-0.630800	-0.630700	-0.630500	-0.630400	-0.630300
-36.000000	-0.645900	-0.638400	-0.635800	-0.634400	-0.633500	-0.632800	-0.632000	-0.631300	-0.630700	-0.630300	-0.630200	-0.629700	-0.629200	-0.628700	-0.628300	-0.627900	-0.627500	-0.627300	-0.627000	-0.626800	-0.626600	-0.626400	-0.626300	-0.626100	-0.626000	-0.625900	-0.625800	-0.625700	-0.625500	-0.625300	-0.625100	-0.624900	-0.624700	-0.624600	-0.624400	-0.624300	-0.624200	-0.624000	-0.623900
-35.000000	-0.638200	-0.630900	-0.628400	-0.627000	-0.626200	-0.625500	-0.624700	-0.624000	-0.623400	-0.623100	-0.622900	-0.622500	-0.622000	-0.621500	-0.621100	-0.620700	-0.620400	-0.620100	-0.619900	-0.619700	-0.619500	-0.619300	-0.619100	-0.619000	-0.618900	-0.618800	-0.618700	-0.618600	-0.618400	-0.618200	-0.618000	-0.617800	-0.617700	-0.617500	-0.617400	-0.617200	-0.617100	-0.617000	-0.616900
-34.000000	-0.629900	-0.622800	-0.620400	-0.619000	-0.618200	-0.617600	-0.616800	-0.616100	-0.615600	-0.615200	-0.615100	-0.614700	-0.614100	-0.613700	-0.613300	-0.612900	-0.612600	-0.612300	-0.612100	-0.611900	-0.611700	-0.611500	-0.611400	-0.611300	-0.611200	-0.611000	-0.610900	-0.610800	-0.610600	-0.610400	-0.610300	-0.610100	-0.610000	-0.609800	-0.609700	-0.609500	-0.609400	-0.609300	-0.609200
-33.000000	-0.620900	-0.614100	-0.611700	-0.610400	-0.609600	-0.609000	-0.608200	-0.607600	-0.607100	-0.606700	-0.606600	-0.606200	-0.605700	-0.605200	-0.604800	-0.604500	-0.604200	-0.603900	-0.603700	-0.603500	-0.603300	-0.603200	-0.603000	-0.602900	-0.602800	-0.602700	-0.602600	-0.602500	-0.602300	-0.602100	-0.601900	-0.601800	-0.601600	-0.601500	-0.601400	-0.601200	-0.601100	-0.601000	-0.600900
-32.000000	-0.611300	-0.604700	-0.602500	-0.601200	-0.600400	-0.599800	-0.599100	-0.598500	-0.598000	-0.597600	-0.597500	-0.597100	-0.596600	-0.596200	-0.595800	-0.595500	-0.595200	-0.594900	-0.594700	-0.594500	-0.594400	-0.594200	-0.594100	-0.593900	-0.593800	-0.593700	-0.593600	-0.593500	-0.593300	-0.593200	-0.593000	-0.592800	-0.592700	-0.592600	-0.592400	-0.592300	-0.592200	-0.592100	-0.592000
-31.000000	-0.601200	-0.594900	-0.592600	-0.591400	-0.590700	-0.590100	-0.589400	-0.588800	-0.588300	-0.588000	-0.587800	-0.587400	-0.587000	-0.586600	-0.586200	-0.585900	-0.585600	-0.585400	-0.585200	-0.585000	-0.584800	-0.584700	-0.584500	-0.584400	-0.584300	-0.584200	-0.584100	-0.584000	-0.583800	-0.583700	-0.583500	-0.583400	-0.583200	-0.583100	-0.583000	-0.582900	-0.582700	-0.582600	-0.582500
-30.000000	-0.590600	-0.584500	-0.582300	-0.581200	-0.580400	-0.579800	-0.579200	-0.578600	-0.578100	-0.577800	-0.577600	-0.577300	-0.576900	-0.576500	-0.576100	-0.575800	-0.575500	-0.575300	-0.575100	-0.574900	-0.574800	-0.574600	-0.574500	-0.574400	-0.574300	-0.574200	-0.574100	-0.573900	-0.573800	-0.573600	-0.573500	-0.573300	-0.573200	-0.573100	-0.573000	-0.572900	-0.572800	-0.572700	-0.572600
-29.000000	-0.579600	-0.573600	-0.571500	-0.570400	-0.569700	-0.569100	-0.568500	-0.568000	-0.567500	-0.567200	-0.567000	-0.566700	-0.566300	-0.565900	-0.565600	-0.565300	-0.565000	-0.564800	-0.564600	-0.564400	-0.564300	-0.564100	-0.564000	-0.563900	-0.563800	-0.563600	-0.563500	-0.563400	-0.563300	-0.563200	-0.563000	-0.562900	-0.562800	-0.562600	-0.562500	-0.562400	-0.562300	-0.562200	-0.562100
-28.000000	-0.568300	-0.562400	-0.560400	-0.559300	-0.558600	-0.558100	-0.557500	-0.556900	-0.556500	-0.556200	-0.556000	-0.555700	-0.555300	-0.554900	-0.554600	-0.554300	-0.554100	-0.553900	-0.553700	-0.553500	-0.553400	-0.553200	-0.553100	-0.553000	-0.552900	-0.552800	-0.552700	-0.552600	-0.552400	-0.552300	-0.552100	-0.552000	-0.551900	-0.551800	-0.551700	-0.551600	-0.551500	-0.551400	-0.551300
-27.000000	-0.556700	-0.551000	-0.549000	-0.547900	-0.547200	-0.546700	-0.546100	-0.545600	-0.545200	-0.544900	-0.544700	-0.544400	-0.544000	-0.543700	-0.543400	-0.543100	-0.542900	-0.542600	-0.542500	-0.542300	-0.542200	-0.542000	-0.541900	-0.541800	-0.541700	-0.541600	-0.541500	-0.541400	-0.541200	-0.541100	-0.541000	-0.540900	-0.540700	-0.540600	-0.540500	-0.540400	-0.540300	-0.540300	-0.540200
-26.000000	-0.545100	-0.539400	-0.537400	-0.536400	-0.535700	-0.535200	-0.534700	-0.534200	-0.533800	-0.533400	-0.533200	-0.532900	-0.532600	-0.532300	-0.532000	-0.531700	-0.531500	-0.531300	-0.531100	-0.531000	-0.530800	-0.530700	-0.530500	-0.530400	-0.530300	-0.530200	-0.530100	-0.530000	-0.529900	-0.529800	-0.529700	-0.529500	-0.529400	-0.529300	-0.529200	-0.529100	-0.529100	-0.529000	-0.528900
-25.000000	-0.533700	-0.528000	-0.526000	-0.525000	-0.524300	-0.523800	-0.523200	-0.522700	-0.522400	-0.522000	-0.521800	-0.521500	-0.521200	-0.520900	-0.520600	-0.520400	-0.520100	-0.519900	-0.519800	-0.519600	-0.519500	-0.519300	-0.519200	-0.519100	-0.519000	-0.518900	-0.518800	-0.518700	-0.518600	-0.518500	-0.518400	-0.518200	-0.518100	-0.518000	-0.517900	-0.517900	-0.517800	-0.517700	-0.517600
-24.000000	-0.522800	-0.516900	-0.514800	-0.513900	-0.513100	-0.512600	-0.512100	-0.511600	-0.511300	-0.510900	-0.510700	-0.510400	-0.510100	-0.509800	-0.509500	-0.509300	-0.509100	-0.508900	-0.508700	-0.508600	-0.508400	-0.508300	-0.508100	-0.508000	-0.507900	-0.507800	-0.507700	-0.507600	-0.507500	-0.507400	-0.507300	-0.507200	-0.507100	-0.507000	-0.506900	-0.506800	-0.506800	-0.506700	-0.506600
-23.000000	-0.512800	-0.506500	-0.504400	-0.503400	-0.502700	-0.502200	-0.501700	-0.501200	-0.500800	-0.500400	-0.500200	-0.499900	-0.499700	-0.499400	-0.499100	-0.498800	-0.498600	-0.498400	-0.498300	-0.498100	-0.498000	-0.497800	-0.497700	-0.497600	-0.497500	-0.497400	-0.497300	-0.497200	-0.497100	-0.497000	-0.496900	-0.496800	-0.496700	-0.496600	-0.496500	-0.496500	-0.496400	-0.496300	-0.496200
-22.000000	-0.504400	-0.497600	-0.495300	-0.494300	-0.493500	-0.493000	-0.492400	-0.492000	-0.491600	-0.491200	-0.490900	-0.490700	-0.490500	-0.490100	-0.489900	-0.489600	-0.489400	-0.489200	-0.489000	-0.488900	-0.488700	-0.488600	-0.488400	-0.488300	-0.488200	-0.488100	-0.488000	-0.487900	-0.487900	-0.487800	-0.487700	-0.487600	-0.487500	-0.487400	-0.487300	-0.487200	-0.487100	-0.487100	-0.487000
-21.000000	-0.498700	-0.490900	-0.488300	-0.487300	-0.486400	-0.485900	-0.485300	-0.484800	-0.484300	-0.483900	-0.483500	-0.483400	-0.483200	-0.482900	-0.482600	-0.482300	-0.482100	-0.481900	-0.481700	-0.481500	-0.481400	-0.481200	-0.481100	-0.481000	-0.480900	-0.480800	-0.480700	-0.480600	-0.480500	-0.480500	-0.480400	-0.480300	-0.480200	-0.480100	-0.480000	-0.479900	-0.479800	-0.479800	-0.479700
-20.000000	-0.497300	-0.487900	-0.484900	-0.483700	-0.482600	-0.482100	-0.481400	-0.480900	-0.480400	-0.479900	-0.479400	-0.479300	-0.479300	-0.478900	-0.478600	-0.478300	-0.478000	-0.477800	-0.477600	-0.477400	-0.477200	-0.477100	-0.476900	-0.476800	-0.476700	-0.476600	-0.476500	-0.476400	-0.476400	-0.476300	-0.476200	-0.476100	-0.476000	-0.475900	-0.475800	-0.475800	-0.475700	-0.475600	-0.475500
-19.000000	-0.502500	-0.490600	-0.486900	-0.485500	-0.484200	-0.483600	-0.482900	-0.482200	-0.481600	-0.481000	-0.480400	-0.480400	-0.480500	-0.480000	-0.479700	-0.479300	-0.479000	-0.478700	-0.478500	-0.478300	-0.478100	-0.477900	-0.477800	-0.477600	-0.477500	-0.477400	-0.477300	-0.477200	-0.477200	-0.477200	-0.477100	-0.477000	-0.476900	-0.476800	-0.476700	-0.476600	-0.476500	-0.476400	-0.476400
-18.000000	-0.518400	-0.502500	-0.497700	-0.495900	-0.494300	-0.493600	-0.492700	-0.491900	-0.491100	-0.490400	-0.489600	-0.489700	-0.489900	-0.489400	-0.489000	-0.488500	-0.488100	-0.487800	-0.487500	-0.487300	-0.487000	-0.486800	-0.486700	-0.486500	-0.486300	-0.486200	-0.486100	-0.486000	-0.486100	-0.486200	-0.486000	-0.485900	-0.485800	-0.485700	-0.485600	-0.485500	-0.485400	-0.485300	-0.485200
-17.000000	-0.551100	-0.529100	-0.522500	-0.520200	-0.517800	-0.517100	-0.516000	-0.514900	-0.513800	-0.512800	-0.511700	-0.512000	-0.512500	-0.511800	-0.511300	-0.510700	-0.510200	-0.509800	-0.509400	-0.509000	-0.508700	-0.508500	-0.508300	-0.508100	-0.507900	-0.507800	-0.507700	-0.507600	-0.507800	-0.507900	-0.507700	-0.507600	-0.507400	-0.507300	-0.507200	-0.507000	-0.506900	-0.506800	-0.506700
-16.000000	-0.609100	-0.578200	-0.569000	-0.565800	-0.562600	-0.561700	-0.560200	-0.558700	-0.557200	-0.555800	-0.554300	-0.554800	-0.555700	-0.554800	-0.554100	-0.553300	-0.552600	-0.552000	-0.551500	-0.551000	-0.550600	-0.550400	-0.550100	-0.549900	-0.549700	-0.549500	-0.549300	-0.549200	-0.549500	-0.549800	-0.549600	-0.549400	-0.549200	-0.549000	-0.548900	-0.548700	-0.548600	-0.548500	-0.548300
-15.000000	-0.702000	-0.660200	-0.647600	-0.643200	-0.638800	-0.637700	-0.635700	-0.633600	-0.631500	-0.629600	-0.627500	-0.628300	-0.629800	-0.628600	-0.627600	-0.626600	-0.625600	-0.624800	-0.624100	-0.623400	-0.622900	-0.622600	-0.622300	-0.621900	-0.621700	-0.621500	-0.621300	-0.621200	-0.621700	-0.622100	-0.621800	-0.621600	-0.621300	-0.621100	-0.620900	-0.620700	-0.620600	-0.620400	-0.620200
-14.000000	-0.830300	-0.781000	-0.765600	-0.760200	-0.754500	-0.753400	-0.750800	-0.748200	-0.745600	-0.743200	-0.740400	-0.741700	-0.743700	-0.742300	-0.740900	-0.739700	-0.738500	-0.737400	-0.736500	-0.735700	-0.735000	-0.734600	-0.734300	-0.733900	-0.733600	-0.733300	-0.733100	-0.733000	-0.733700	-0.734300	-0.734000	-0.733700	-0.733400	-0.733100	-0.732900	-0.732700	-0.732500	-0.732300	-0.732100
-13.000000	-0.965600	-0.924700	-0.910400	-0.905400	-0.899900	-0.898900	-0.896400	-0.893900	-0.891300	-0.888900	-0.886100	-0.887500	-0.889700	-0.888300	-0.887000	-0.885700	-0.884500	-0.883400	-0.882500	-0.881700	-0.881000	-0.880600	-0.880300	-0.879900	-0.879600	-0.879400	-0.879200	-0.879100	-0.879900	-0.880600	-0.880200	-0.879900	-0.879700	-0.879400	-0.879200	-0.879000	-0.878800	-0.878600	-0.878400
-12.000000	-1.046600	-1.035800	-1.029900	-1.027700	-1.025100	-1.024700	-1.023500	-1.022200	-1.020900	-1.019600	-1.018100	-1.019000	-1.020300	-1.019600	-1.018900	-1.018300	-1.017600	-1.017100	-1.016600	-1.016100	-1.015800	-1.015600	-1.015400	-1.015200	-1.015000	-1.014900	-1.014800	-1.014800	-1.015300	-1.015800	-1.015600	-1.015500	-1.015300	-1.015200	-1.015100	-1.015000	-1.014900	-1.014800	-1.014700
-11.000000	-1.034000	-1.055500	-1.060700	-1.062400	-1.063900	-1.064300	-1.065100	-1.065800	-1.066400	-1.066900	-1.067400	-1.067300	-1.067100	-1.067500	-1.067800	-1.068100	-1.068400	-1.068600	-1.068800	-1.069000	-1.069100	-1.069200	-1.069300	-1.069400	-1.069500	-1.069500	-1.069600	-1.069600	-1.069600	-1.069500	-1.069600	-1.069700	-1.069800	-1.069900	-1.069900	-1.070000	-1.070100	-1.070100	-1.070200
-10.000000	-0.858600	-0.865500	-0.864700	-0.869300	-0.872400	-0.878700	-0.883500	-0.888600	-0.890600	-0.896700	-0.901400	-0.903500	-0.905400	-0.910500	-0.915200	-0.918600	-0.920900	-0.922400	-0.924900	-0.929300	-0.933500	-0.936000	-0.937800	-0.939000	-0.939700	-0.940100	-0.940500	-0.941100	-0.942000	-0.943400	-0.944900	-0.946200	-0.947500	-0.948500	-0.949200	-0.949300	-0.949000	-0.948400	-0.947900
-9.500000	-0.846500	-0.863800	-0.862000	-0.859500	-0.862600	-0.866900	-0.868800	-0.872500	-0.874500	-0.878300	-0.879600	-0.873650	-0.883900	-0.886400	-0.887800	-0.888500	-0.889400	-0.891300	-0.893200	-0.894700	-0.895900	-0.896600	-0.897000	-0.897400	-0.898000	-0.898900	-0.900200	-0.901400	-0.902600	-0.903600	-0.904500	-0.905100	-0.905500	-0.905800	-0.905900	-0.906000	-0.906000	-0.906300	-0.906600
-9.000000	-0.815200	-0.836700	-0.840700	-0.840000	-0.839600	-0.839300	-0.840900	-0.841900	-0.841800	-0.842900	-0.844000	-0.843800	-0.845600	-0.846800	-0.847100	-0.847000	-0.847900	-0.849300	-0.850400	-0.851100	-0.851400	-0.851500	-0.851900	-0.852600	-0.853700	-0.854600	-0.855300	-0.855900	-0.856300	-0.856600	-0.856700	-0.856800	-0.856900	-0.857200	-0.857500	-0.858000	-0.858500	-0.859200	-0.859800
-8.500000	-0.773600	-0.794300	-0.802300	-0.805400	-0.805300	-0.804300	-0.802800	-0.803500	-0.803100	-0.803500	-0.803000	-0.803500	-0.802500	-0.802800	-0.803400	-0.803200	-0.802800	-0.803600	-0.804400	-0.804800	-0.804700	-0.804400	-0.804400	-0.805000	-0.805600	-0.806200	-0.806500	-0.806700	-0.806700	-0.806700	-0.806700	-0.806900	-0.807300	-0.807700	-0.808300	-0.808800	-0.809200	-0.809600	-0.809900
-8.000000	-0.723100	-0.745700	-0.753900	-0.758100	-0.761600	-0.761700	-0.760800	-0.760500	-0.759800	-0.758300	-0.758600	-0.757700	-0.757500	-0.757700	-0.756800	-0.757000	-0.757100	-0.756500	-0.755700	-0.756000	-0.756200	-0.756000	-0.755600	-0.755300	-0.755500	-0.756000	-0.756300	-0.756500	-0.756500	-0.756300	-0.756100	-0.756100	-0.756300	-0.756600	-0.756900	-0.757100	-0.757300	-0.757400	-0.757500
-7.500000	-0.672600	-0.694000	-0.701700	-0.706000	-0.709100	-0.710700	-0.712400	-0.712600	-0.712300	-0.711400	-0.711000	-0.709600	-0.709600	-0.708600	-0.708100	-0.708100	-0.707300	-0.706600	-0.706800	-0.706700	-0.706000	-0.705600	-0.705800	-0.705900	-0.705700	-0.705100	-0.704600	-0.704700	-0.704800	-0.704800	-0.704600	-0.704300	-0.703900	-0.703800	-0.703900	-0.704100	-0.704300	-0.704400	-0.704400
-7.000000	-0.617900	-0.640400	-0.647400	-0.650800	-0.654000	-0.655500	-0.657100	-0.658400	-0.658900	-0.659400	-0.660100	-0.659600	-0.659000	-0.658700	-0.657400	-0.657200	-0.655900	-0.655700	-0.655300	-0.654500	-0.654300	-0.654200	-0.653900	-0.653300	-0.652700	-0.652700	-0.652700	-0.652500	-0.652100	-0.651500	-0.651300	-0.651500	-0.651600	-0.651500	-0.651400	-0.651000	-0.650600	-0.650400	-0.650500
-6.500000	-0.567100	-0.584600	-0.591100	-0.594900	-0.596500	-0.598800	-0.600200	-0.601000	-0.601800	-0.602500	-0.603100	-0.603300	-0.603300	-0.603400	-0.603900	-0.604300	-0.604200	-0.603700	-0.603200	-0.603200	-0.602800	-0.601800	-0.601500	-0.601100	-0.600100	-0.599700	-0.599400	-0.598900	-0.598100	-0.598000	-0.598000	-0.597800	-0.597400	-0.596900	-0.596500	-0.596500	-0.596500	-0.596400	-0.596200
-6.000000	-0.507800	-0.528500	-0.534300	-0.537400	-0.539600	-0.541000	-0.541900	-0.543100	-0.543900	-0.544300	-0.544400	-0.544700	-0.545400	-0.545700	-0.545800	-0.545800	-0.545600	-0.545400	-0.545300	-0.545500	-0.545700	-0.545800	-0.545900	-0.545800	-0.545500	-0.545200	-0.545200	-0.545200	-0.545100	-0.544800	-0.544300	-0.543700	-0.543600	-0.543400	-0.543100	-0.542600	-0.542000	-0.541800	-0.541700
-5.500000	-0.457200	-0.472400	-0.477100	-0.479400	-0.481100	-0.483000	-0.483700	-0.484100	-0.484200	-0.485300	-0.486100	-0.486300	-0.486400	-0.486400	-0.486300	-0.486200	-0.486300	-0.486500	-0.486800	-0.486900	-0.487000	-0.487000	-0.486700	-0.486400	-0.486300	-0.486200	-0.486200	-0.486300	-0.486300	-0.486300	-0.486200	-0.486100	-0.485900	-0.485700	-0.485500	-0.485400	-0.485500	-0.485500	-0.485600
-5.000000	-0.398100	-0.414400	-0.419000	-0.421500	-0.422900	-0.423200	-0.424400	-0.425400	-0.426100	-0.426000	-0.425800	-0.425700	-0.426100	-0.426500	-0.426800	-0.427100	-0.427300	-0.427300	-0.427100	-0.426900	-0.426800	-0.426700	-0.426600	-0.426700	-0.426700	-0.426800	-0.426900	-0.426900	-0.426900	-0.427000	-0.426900	-0.426900	-0.426700	-0.426600	-0.426500	-0.426400	-0.426400	-0.426400	-0.426300
-4.500000	-0.342500	-0.357600	-0.361300	-0.362800	-0.363900	-0.364800	-0.365200	-0.365400	-0.365800	-0.366100	-0.366300	-0.366500	-0.366500	-0.366600	-0.366500	-0.366500	-0.366500	-0.366600	-0.366600	-0.366600	-0.366600	-0.366600	-0.366600	-0.366600	-0.366500	-0.366500	-0.366400	-0.366400	-0.366400	-0.366400	-0.366400	-0.366300	-0.366300	-0.366200	-0.366200	-0.366200	-0.366100	-0.366100	-0.366000
-4.000000	-0.291300	-0.300500	-0.303000	-0.304200	-0.304400	-0.305700	-0.306000	-0.305900	-0.305700	-0.305800	-0.306400	-0.306800	-0.306600	-0.306500	-0.306300	-0.306100	-0.306000	-0.305800	-0.305800	-0.305900	-0.306000	-0.306100	-0.306200	-0.306200	-0.306200	-0.306100	-0.306000	-0.305900	-0.305800	-0.305600	-0.305500	-0.305400	-0.305200	-0.305100	-0.305000	-0.304900	-0.304900	-0.304800	-0.304800
-3.500000	-0.235000	-0.242400	-0.244100	-0.245200	-0.245900	-0.245400	-0.245700	-0.246200	-0.246600	-0.246600	-0.246100	-0.245700	-0.245500	-0.245600	-0.245700	-0.245800	-0.245900	-0.246000	-0.246000	-0.245900	-0.245600	-0.245300	-0.245100	-0.244900	-0.244700	-0.244600	-0.244600	-0.244500	-0.244500	-0.244400	-0.244400	-0.244400	-0.244400	-0.244300	-0.244300	-0.244300	-0.244200	-0.244200	-0.244100
-3.000000	-0.178100	-0.184300	-0.185700	-0.186200	-0.186300	-0.186100	-0.185800	-0.186400	-0.186200	-0.186000	-0.185800	-0.185600	-0.185500	-0.185300	-0.185200	-0.185300	-0.185200	-0.185000	-0.184800	-0.184700	-0.184500	-0.184400	-0.184200	-0.184100	-0.184000	-0.183900	-0.183700	-0.183600	-0.183500	-0.183400	-0.183400	-0.183300	-0.183200	-0.183200	-0.183200	-0.183200	-0.183200	-0.183100	-0.183100
-2.500000	-0.124700	-0.126400	-0.127000	-0.126400	-0.126500	-0.126900	-0.126700	-0.125700	-0.125300	-0.125300	-0.125400	-0.125500	-0.125600	-0.125300	-0.124800	-0.124400	-0.124000	-0.123700	-0.123400	-0.123300	-0.123200	-0.123100	-0.123100	-0.123000	-0.123000	-0.123000	-0.122900	-0.122900	-0.122800	-0.122700	-0.122700	-0.122500	-0.122300	-0.122100	-0.122000	-0.121800	-0.121700	-0.121500	-0.121400
-2.000000	-0.070600	-0.068900	-0.068100	-0.067500	-0.066900	-0.066900	-0.066300	-0.065900	-0.065500	-0.065200	-0.065300	-0.064900	-0.064400	-0.064100	-0.063700	-0.063400	-0.063200	-0.062900	-0.062700	-0.062600	-0.062400	-0.062300	-0.062200	-0.062100	-0.062000	-0.061800	-0.061600	-0.061500	-0.061300	-0.061100	-0.060900	-0.060800	-0.060600	-0.060500	-0.060400	-0.060300	-0.060200	-0.060100	-0.060000
-1.500000	-0.013200	-0.010500	-0.008800	-0.008300	-0.007600	-0.006300	-0.006000	-0.006000	-0.006000	-0.005300	-0.004500	-0.003700	-0.003200	-0.002900	-0.002700	-0.002600	-0.002500	-0.002400	-0.002300	-0.002200	-0.001900	-0.001500	-0.001100	-0.000800	-0.000500	-0.000200	0.000000	0.000200	0.000400	0.000600	0.000700	0.000800	0.000900	0.001000	0.001100	0.001200	0.001200	0.001300	0.001300
-1.000000	0.042000	0.047800	0.050100	0.051100	0.052200	0.053200	0.053900	0.054000	0.054800	0.055600	0.056200	0.056800	0.057200	0.057500	0.057800	0.057900	0.058100	0.058500	0.059000	0.059300	0.059700	0.060000	0.060300	0.060600	0.060800	0.061100	0.061300	0.061400	0.061600	0.061800	0.061900	0.062000	0.062100	0.062200	0.062300	0.062400	0.062500	0.062600	0.062700
-0.500000	0.096400	0.106200	0.108900	0.111100	0.112100	0.112500	0.113400	0.115000	0.115700	0.116300	0.116700	0.116900	0.117100	0.117500	0.118200	0.118900	0.119500	0.120100	0.120500	0.120800	0.121100	0.121400	0.121600	0.121800	0.122000	0.122100	0.122300	0.122400	0.122500	0.122700	0.122800	0.123000	0.123100	0.123300	0.123500	0.123700	0.123900	0.124200	0.124400
0.000000	0.152300	0.163900	0.167900	0.170200	0.171500	0.172500	0.173800	0.175000	0.175900	0.176400	0.176600	0.177100	0.178000	0.178800	0.179500	0.180100	0.180600	0.181100	0.181500	0.181800	0.182100	0.182300	0.182500	0.182700	0.182900	0.183000	0.183200	0.183400	0.183700	0.184000	0.184300	0.184500	0.184800	0.185000	0.185300	0.185500	0.185700	0.185900	0.186100
0.500000	0.209900	0.222400	0.227100	0.229200	0.231000	0.232800	0.234000	0.234800	0.235200	0.236100	0.237400	0.238400	0.239200	0.239900	0.240500	0.241000	0.241400	0.241700	0.242000	0.242300	0.242600	0.242800	0.243100	0.243600	0.244000	0.244400	0.244800	0.245200	0.245500	0.245800	0.246000	0.246300	0.246500	0.246700	0.246900	0.247100	0.247300	0.247400	0.247600
1.000000	0.263600	0.280600	0.285900	0.288500	0.290600	0.292600	0.293800	0.294100	0.295500	0.296900	0.298100	0.299100	0.300000	0.300600	0.301000	0.301400	0.301700	0.301900	0.302300	0.303000	0.303600	0.304100	0.304600	0.305100	0.305500	0.305900	0.306300	0.306600	0.306900	0.307200	0.307400	0.307700	0.307800	0.308000	0.308100	0.308300	0.308400	0.308500	0.308600
1.500000	0.318500	0.338700	0.344600	0.348200	0.350300	0.351700	0.352900	0.354900	0.356300	0.357500	0.358500	0.359300	0.359900	0.360300	0.360700	0.361500	0.362400	0.363100	0.363800	0.364400	0.365000	0.365500	0.366000	0.366400	0.366800	0.367100	0.367300	0.367600	0.367800	0.367900	0.368100	0.368300	0.368400	0.368600	0.368800	0.368900	0.369100	0.369400	0.369600
2.000000	0.373800	0.395900	0.403300	0.407000	0.409700	0.411000	0.413000	0.414900	0.416600	0.417600	0.418300	0.418800	0.419400	0.420600	0.421700	0.422700	0.423500	0.424300	0.424900	0.425500	0.426000	0.426300	0.426600	0.426900	0.427200	0.427400	0.427600	0.427900	0.428100	0.428400	0.428800	0.429100	0.429500	0.429900	0.430200	0.430500	0.430800	0.431100	0.431300
2.500000	0.431800	0.454200	0.462100	0.465800	0.468400	0.471000	0.473000	0.474700	0.475900	0.476600	0.477700	0.479200	0.480500	0.481700	0.482600	0.483500	0.484200	0.484700	0.485200	0.485600	0.486000	0.486300	0.486600	0.486900	0.487400	0.488000	0.488500	0.489000	0.489500	0.489900	0.490300	0.490600	0.491000	0.491300	0.491600	0.491900	0.492100	0.492300	0.492500
3.000000	0.484300	0.512500	0.520000	0.524600	0.527500	0.530400	0.532500	0.533500	0.534600	0.536600	0.538300	0.539800	0.541100	0.542100	0.542800	0.543400	0.543900	0.544400	0.544800	0.545300	0.546100	0.546900	0.547600	0.548200	0.548800	0.549300	0.549800	0.550300	0.550700	0.551000	0.551300	0.551600	0.551900	0.552100	0.552400	0.552600	0.552700	0.552900	0.553000
3.500000	0.534300	0.568200	0.578200	0.583200	0.586600	0.589000	0.590500	0.592900	0.595000	0.596900	0.598500	0.599700	0.600600	0.601300	0.601900	0.602400	0.603500	0.604600	0.605600	0.606400	0.607200	0.607900	0.608600	0.609100	0.609600	0.610100	0.610500	0.610800	0.611100	0.611300	0.611500	0.611700	0.611900	0.612100	0.612300	0.612500	0.612700	0.613100	0.613400
4.000000	0.590600	0.624600	0.636500	0.641200	0.645200	0.647100	0.649800	0.652500	0.654700	0.656400	0.657500	0.658300	0.659000	0.660500	0.661900	0.663200	0.664400	0.665400	0.666200	0.666900	0.667500	0.668000	0.668400	0.668700	0.669000	0.669300	0.669600	0.669900	0.670500	0.671000	0.671500	0.672000	0.672400	0.672800	0.673200	0.673500	0.673800	0.674100	0.674300
4.500000	0.652500	0.683000	0.693400	0.699200	0.702600	0.706200	0.709200	0.711600	0.713200	0.714300	0.715500	0.717600	0.719500	0.721000	0.722300	0.723300	0.724100	0.724700	0.725200	0.725600	0.726100	0.726600	0.727500	0.728200	0.728900	0.729600	0.730100	0.730600	0.731100	0.731500	0.731900	0.732200	0.732400	0.732600	0.732800	0.732900	0.733000	0.733200	0.733400
5.000000	0.696900	0.739900	0.750200	0.757000	0.760800	0.764500	0.767300	0.768700	0.770800	0.773500	0.775700	0.777500	0.778800	0.779700	0.780400	0.781000	0.781900	0.783200	0.784400	0.785400	0.786300	0.787100	0.787800	0.788400	0.788900	0.789300	0.789600	0.789800	0.790000	0.790200	0.790400	0.790700	0.791100	0.791600	0.792100	0.792500	0.792900	0.793200	0.793600
5.500000	0.747000	0.793100	0.807500	0.813500	0.818500	0.821000	0.823700	0.827300	0.830200	0.832200	0.833700	0.834800	0.835800	0.837500	0.839200	0.840700	0.842000	0.843000	0.843900	0.844600	0.845100	0.845600	0.846000	0.846400	0.846900	0.847400	0.848100	0.848800	0.849400	0.850000	0.850500	0.850900	0.851300	0.851700	0.852000	0.852200	0.852300	0.852300	0.852300
6.000000	0.809500	0.849600	0.862800	0.869600	0.873400	0.878100	0.882100	0.885100	0.887200	0.888500	0.890600	0.893100	0.895200	0.896900	0.898300	0.899400	0.900200	0.900800	0.901400	0.902100	0.903000	0.903900	0.904800	0.905600	0.906400	0.907000	0.907400	0.907600	0.907700	0.907600	0.907600	0.907800	0.908200	0.908700	0.909100	0.909400	0.909500	0.909500	0.909300
6.500000	0.858400	0.906300	0.917100	0.924600	0.930100	0.935000	0.938100	0.939900	0.943500	0.946800	0.949400	0.951400	0.952800	0.953900	0.954800	0.955700	0.957300	0.958700	0.959800	0.960600	0.960900	0.960900	0.960900	0.961400	0.962100	0.962700	0.963100	0.963200	0.963000	0.962600	0.962400	0.962800	0.963200	0.963400	0.963200	0.962600	0.961800	0.961600	0.961900
7.000000	0.908800	0.956500	0.972100	0.979200	0.985600	0.988600	0.993100	0.997700	1.001100	1.003500	1.004800	1.006000	1.008500	1.010300	1.011100	1.011200	1.011500	1.012800	1.013900	1.014500	1.014400	1.014100	1.014400	1.015000	1.015300	1.015000	1.014000	1.013800	1.014100	1.014000	1.013400	1.012400	1.012100	1.012300	1.012400	1.012300	1.011800	1.011200	1.010900
7.500000	0.970900	1.010100	1.023900	1.032700	1.037600	1.044400	1.049100	1.051200	1.053800	1.057100	1.058700	1.059100	1.061000	1.062800	1.063600	1.063200	1.063800	1.064600	1.064400	1.063400	1.063700	1.064100	1.063700	1.062600	1.062500	1.063000	1.063000	1.062600	1.061800	1.061500	1.062000	1.062400	1.062600	1.062400	1.061800	1.061100	1.061000	1.061300	1.061600
8.000000	1.011200	1.060100	1.075100	1.083700	1.091300	1.093900	1.099700	1.102900	1.103800	1.107400	1.108800	1.108600	1.110600	1.111000	1.109900	1.110900	1.110900	1.109600	1.110000	1.110300	1.109500	1.108500	1.109100	1.109500	1.109200	1.108200	1.107500	1.108100	1.108500	1.108500	1.107900	1.107100	1.106900	1.107400	1.107900	1.108200	1.108300	1.107700	1.107100
8.500000	1.062200	1.107700	1.123000	1.131300	1.138200	1.142200	1.146300	1.149700	1.150400	1.152600	1.151200	1.152600	1.150800	1.151600	1.151300	1.149900	1.151100	1.151500	1.150400	1.150000	1.151100	1.151600	1.151100	1.150000	1.150400	1.151300	1.151700	1.151500	1.150600	1.150000	1.150400	1.151100	1.151600	1.151700	1.151500	1.151100	1.150800	1.150800	1.151300
9.000000	1.107000	1.151200	1.163400	1.174000	1.179200	1.182500	1.185900	1.185000	1.186500	1.185800	1.186600	1.185200	1.187300	1.186500	1.186200	1.187900	1.187600	1.186300	1.187600	1.188600	1.188300	1.187000	1.187200	1.188600	1.189300	1.189400	1.188900	1.188500	1.189000	1.190300	1.191400	1.192100	1.192400	1.192500	1.192300	1.192100	1.192300	1.192800	1.193600
9.500000	1.145300	1.186300	1.196500	1.203900	1.207200	1.205900	1.205100	1.207100	1.204700	1.208200	1.205800	1.208900	1.208700	1.207300	1.206100	1.210300	1.208400	1.210500	1.212400	1.212600	1.211600	1.211800	1.214400	1.216600	1.217800	1.218000	1.217700	1.217600	1.218400	1.220600	1.223000	1.224900	1.226400	1.227300	1.227800	1.227800	1.227900	1.228200	1.229000
10.000000	1.166700	1.203900	1.212800	1.216800	1.217100	1.217900	1.217000	1.218300	1.219800	1.220300	1.220800	1.223200	1.221500	1.223800	1.226000	1.225500	1.225200	1.228400	1.230900	1.232100	1.232100	1.232000	1.233500	1.236400	1.238900	1.240600	1.241300	1.241400	1.241300	1.241600	1.242600	1.244600	1.246700	1.248400	1.249700	1.250600	1.251000	1.251200	1.251300
10.500000	1.184600	1.215500	1.220500	1.221700	1.222700	1.225200	1.228100	1.227650	1.232000	1.230900	1.234900	1.236800	1.236300	1.240300	1.243500	1.244600	1.244500	1.246500	1.250000	1.252400	1.253300	1.253300	1.253400	1.254800	1.257700	1.260200	1.262000	1.263100	1.263700	1.264000	1.264400	1.265300	1.266600	1.268300	1.270600	1.272800	1.274900	1.276700	1.278300
11.000000	1.191900	1.215150	1.223900	1.226300	1.228300	1.230200	1.236200	1.237000	1.242500	1.243400	1.248600	1.252300	1.252700	1.255500	1.259800	1.262000	1.263350	1.263000	1.266100	1.269800	1.272700	1.274800	1.276000	1.276800	1.277800	1.279500	1.281800	1.284600	1.287300	1.289700	1.291800	1.293400	1.294500	1.295200	1.295700	1.296000	1.296500	1.297400	1.298600
11.500000	1.188100	1.214800	1.221900	1.226900	1.232200	1.235100	1.243300	1.246000	1.253900	1.255900	1.259900	1.265300	1.267400	1.268500	1.273100	1.278400	1.282200	1.284600	1.285800	1.287300	1.289800	1.293600	1.297200	1.300400	1.302900	1.304700	1.305800	1.306400	1.307100	1.308300	1.310100	1.312500	1.314900	1.316900	1.318700	1.319900	1.320200	1.319800	1.318900
12.000000	1.176700	1.207700	1.217600	1.226400	1.234600	1.240000	1.250300	1.253700	1.262000	1.267200	1.270200	1.277000	1.283300	1.287300	1.289600	1.291800	1.296000	1.301800	1.306600	1.310100	1.312100	1.313200	1.314100	1.315700	1.318100	1.321400	1.324300	1.326700	1.328200	1.328400	1.327600	1.326700	1.327000	1.328700	1.330400	1.331700	1.332200	1.332300	1.331800
12.500000	1.177100	1.197300	1.213300	1.226200	1.236600	1.246500	1.255700	1.263700	1.268200	1.278500	1.286300	1.290200	1.293600	1.300100	1.306300	1.310700	1.313500	1.315000	1.317000	1.320900	1.326200	1.330200	1.332400	1.333000	1.332500	1.332100	1.333700	1.335900	1.337300	1.338000	1.338000	1.337600	1.337600	1.338500	1.340200	1.342200	1.344200	1.346000	1.347700
13.000000	1.174200	1.187300	1.209400	1.226400	1.237100	1.252500	1.259700	1.272000	1.280900	1.286200	1.294500	1.303500	1.309200	1.312200	1.314600	1.318950	1.325100	1.329500	1.331600	1.331700	1.331900	1.335000	1.338200	1.339800	1.340400	1.340300	1.341000	1.346750	1.345700	1.348100	1.350400	1.352500	1.354400	1.356200	1.357700	1.359200	1.360500	1.361900	1.363300
13.500000	1.171200	1.188200	1.203100	1.223300	1.243900	1.256700	1.270600	1.277900	1.288900	1.299900	1.305500	1.309100	1.315700	1.322200	1.326100	1.327200	1.328100	1.332200	1.335400	1.337850	1.337400	1.338200	1.341100	1.345600	1.349700	1.352800	1.355300	1.357600	1.359600	1.361400	1.363500	1.365000	1.367000	1.369000	1.371200	1.373500	1.375800	1.378200	1.380800
14.000000	1.171100	1.188600	1.204800	1.225700	1.247200	1.262200	1.275000	1.289100	1.297100	1.304200	1.313100	1.314550	1.320400	1.324200	1.329000	1.332000	1.335600	1.334900	1.339100	1.344000	1.349000	1.353300	1.356300	1.358900	1.361200	1.363500	1.365900	1.368400	1.371000	1.373800	1.376600	1.379500	1.382400	1.385700	1.389200	1.392800	1.396700	1.400800	1.404200
14.500000	1.173200	1.192400	1.214100	1.233400	1.246900	1.266100	1.280700	1.292300	1.299350	1.308100	1.313500	1.320000	1.324300	1.326700	1.336250	1.336900	1.343100	1.348900	1.353100	1.356300	1.359300	1.362200	1.365300	1.368600	1.372100	1.375500	1.379200	1.383500	1.387600	1.391700	1.396100	1.399000	1.405700	1.409000	1.411800	1.414500	1.417000	1.419300	1.421500
15.000000	1.175800	1.197200	1.218300	1.233500	1.256900	1.268100	1.281550	1.290500	1.301600	1.310000	1.315000	1.320300	1.328900	1.337200	1.343500	1.348100	1.352000	1.355800	1.361700	1.363800	1.367900	1.372500	1.377900	1.383200	1.388500	1.394200	1.396950	1.405400	1.409100	1.412500	1.415600	1.418500	1.421100	1.423600	1.425800	1.428000	1.429900	1.431700	1.433300
15.500000	1.174800	1.197700	1.216000	1.241800	1.258900	1.271000	1.282400	1.292250	1.305550	1.308500	1.322900	1.331800	1.338300	1.343400	1.348000	1.353100	1.357700	1.363200	1.370300	1.377300	1.385000	1.393000	1.398300	1.398400	1.407100	1.411000	1.414700	1.417900	1.420800	1.423600	1.426100	1.428400	1.430600	1.432700	1.434700	1.436700	1.438800	1.441100	1.443600
16.000000	1.171400	1.192300	1.220200	1.242000	1.253900	1.272600	1.283400	1.294000	1.309500	1.319600	1.325500	1.332750	1.342700	1.344400	1.352500	1.362700	1.374600	1.382700	1.389300	1.395200	1.400500	1.405200	1.409600	1.413600	1.417100	1.420300	1.423300	1.426300	1.429100	1.432000	1.435400	1.439400	1.443000	1.445500	1.447600	1.449500	1.451300	1.453100	1.456400
16.500000	1.172100	1.194900	1.219800	1.234700	1.260900	1.272300	1.287600	1.303300	1.313700	1.321300	1.328100	1.333700	1.347100	1.356350	1.364950	1.374450	1.385450	1.390300	1.397900	1.403900	1.409400	1.414500	1.419700	1.425300	1.429100	1.432000	1.434800	1.437500	1.440100	1.439600	1.444900	1.447100	1.449300	1.452000	1.460825	1.462800	1.467150	1.466400	1.469700
17.000000	1.171000	1.193600	1.211300	1.243000	1.255500	1.274500	1.293900	1.307000	1.318000	1.323800	1.334200	1.347100	1.358400	1.368300	1.377400	1.386200	1.396300	1.403800	1.405100	1.410100	1.414750	1.419150	1.423700	1.429100	1.432200	1.435900	1.438900	1.441800	1.444500	1.447200	1.454733	1.457867	1.460500	1.466000	1.474050	1.476100	1.483000	1.481450	1.489900
17.500000	1.172000	1.193600	1.217500	1.237800	1.255100	1.284400	1.299100	1.308000	1.312000	1.327700	1.342800	1.357500	1.373100	1.382600	1.390600	1.397300	1.403100	1.408000	1.412300	1.416300	1.420100	1.423800	1.427500	1.433500	1.435300	1.442000	1.446350	1.450500	1.457900	1.462700	1.464567	1.468633	1.477500	1.481700	1.487275	1.489400	1.493100	1.496500	1.499900
18.000000	1.180200	1.192600	1.221600	1.232100	1.264800	1.284000	1.294600	1.298600	1.318200	1.341400	1.356200	1.368300	1.378200	1.386700	1.394200	1.401200	1.407900	1.416400	1.422200	1.426500	1.430500	1.434200	1.437800	1.437900	1.444100	1.448100	1.453800	1.459200	1.464300	1.469400	1.474400	1.479400	1.490167	1.494500	1.500500	1.504500	1.503850	1.512400	1.510500
18.500000	1.188000	1.199800	1.217300	1.239100	1.265800	1.281800	1.288400	1.307800	1.328700	1.345400	1.359900	1.374200	1.388300	1.396800	1.403700	1.409400	1.414500	1.419000	1.423200	1.427100	1.430800	1.434300	1.437400	1.442300	1.449600	1.459700	1.470800	1.476800	1.482300	1.487300	1.491900	1.496200	1.502833	1.507300	1.507800	1.511200	1.514600	1.517900	1.521100
19.000000	1.193900	1.208000	1.218300	1.247300	1.268300	1.277500	1.287600	1.311500	1.333900	1.355000	1.368700	1.379600	1.388600	1.396100	1.402500	1.408400	1.413900	1.419700	1.427300	1.433500	1.437100	1.443600	1.451400	1.458600	1.465200	1.471300	1.477100	1.482500	1.487700	1.492800	1.498000	1.503900	1.515500	1.520100	1.524200	1.527900	1.531500	1.534900	1.538100
19.500000	1.209000	1.211500	1.224600	1.248700	1.263400	1.267000	1.294900	1.320800	1.339700	1.355300	1.368300	1.380900	1.394300	1.401900	1.408100	1.413300	1.417800	1.421700	1.425000	1.430600	1.439100	1.447300	1.455500	1.464400	1.479400	1.486600	1.492800	1.498400	1.503500	1.508200	1.512500	1.516600	1.520500	1.524200	1.527800	1.531300	1.534600	1.537900	1.541200
20.000000	1.209500	1.215500	1.232700	1.252200	1.261300	1.275200	1.299900	1.321400	1.343200	1.361500	1.373800	1.383500	1.391100	1.397200	1.402200	1.406400	1.409800	1.414500	1.426700	1.443600	1.453200	1.461800	1.469500	1.476600	1.483000	1.489100	1.494700	1.500200	1.505700	1.511700	1.524100	1.529800	1.534200	1.538200	1.542000	1.545500	1.548700	1.551800	1.554700
20.500000	1.204700	1.223200	1.235500	1.249100	1.253500	1.278700	1.306400	1.327600	1.344800	1.358400	1.369700	1.379000	1.387400	1.395600	1.400000	1.404100	1.416100	1.426900	1.436800	1.446200	1.455200	1.464200	1.475800	1.489300	1.496100	1.502200	1.507800	1.512900	1.517600	1.521900	1.526000	1.529900	1.533500	1.537000	1.540400	1.543600	1.546700	1.549800	1.552900
21.000000	1.195100	1.225800	1.240200	1.249400	1.262700	1.285200	1.306300	1.325600	1.343500	1.360800	1.370500	1.377000	1.380800	1.381600	1.393100	1.405400	1.417100	1.430700	1.449200	1.459200	1.468000	1.476000	1.483100	1.489500	1.495500	1.501200	1.506700	1.512500	1.520000	1.531900	1.536300	1.540200	1.543800	1.547100	1.550100	1.552800	1.555400	1.557700	1.559900
21.500000	1.180400	1.226700	1.240400	1.246000	1.265600	1.286300	1.309500	1.328100	1.342300	1.352600	1.358700	1.360600	1.364500	1.380100	1.402600	1.416400	1.428300	1.439300	1.449300	1.458700	1.468300	1.485400	1.493800	1.500400	1.506200	1.511400	1.516000	1.520400	1.524300	1.528000	1.531400	1.534500	1.537400	1.540100	1.542500	1.544800	1.547000	1.549200	1.551300
22.000000	1.161500	1.222600	1.241300	1.252200	1.271100	1.289600	1.307500	1.322300	1.333500	1.339400	1.337900	1.350200	1.373200	1.388400	1.402100	1.415000	1.428700	1.449400	1.460100	1.469000	1.476700	1.483700	1.489900	1.495600	1.500800	1.505800	1.510700	1.516000	1.528700	1.533000	1.536300	1.539200	1.541900	1.544400	1.546900	1.549300	1.551600	1.553900	1.556100
22.500000	1.071933	1.217900	1.240200	1.254200	1.270700	1.287700	1.304100	1.317900	1.324500	1.317900	1.338600	1.355900	1.371700	1.387300	1.410000	1.423600	1.435400	1.446000	1.455600	1.464600	1.474400	1.490000	1.496400	1.501700	1.506400	1.510400	1.514100	1.517300	1.520100	1.522800	1.525400	1.527900	1.530400	1.532900	1.535200	1.537400	1.539300	1.540800	1.541300
23.000000	0.982367	1.207300	1.229200	1.255400	1.272900	1.288800	1.301000	1.307100	1.302100	1.320100	1.337500	1.355600	1.378400	1.393100	1.406800	1.419500	1.432900	1.452200	1.461600	1.469300	1.475800	1.481200	1.486000	1.490400	1.494400	1.498000	1.501400	1.504700	1.508100	1.511500	1.515000	1.519300	1.527900	1.529100	1.533500	1.533350	1.542900	1.547000	1.550800
23.500000	0.892800	1.192200	1.223300	1.251800	1.269900	1.283600	1.291200	1.288400	1.302000	1.321500	1.342900	1.359300	1.374400	1.389000	1.411200	1.424800	1.435600	1.444700	1.452600	1.459400	1.465400	1.471400	1.479600	1.489700	1.493800	1.497200	1.500200	1.502600	1.504600	1.506100	1.507400	1.510550	1.517750	1.520800	1.532400	1.529300	1.533300	1.537200	1.541100
24.000000	0.919600	1.166100	1.212600	1.249600	1.270300	1.281400	1.284400	1.289700	1.307200	1.323700	1.339500	1.355000	1.376900	1.392300	1.405300	1.416800	1.427000	1.437100	1.452400	1.458900	1.464300	1.468800	1.472500	1.475700	1.478300	1.480500	1.482400	1.483900	1.485200	1.490500	1.496200	1.501800	1.507600	1.514400	1.531300	1.536400	1.541000	1.545300	1.549200
24.500000	0.923100	1.160900	1.186900	1.240900	1.265000	1.274200	1.269800	1.288800	1.305300	1.321700	1.342400	1.357400	1.371300	1.384600	1.397300	1.416100	1.426700	1.434100	1.440000	1.445000	1.449100	1.452500	1.455300	1.457700	1.459800	1.461600	1.463000	1.469200	1.477800	1.495500	1.502000	1.507800	1.512900	1.517700	1.522200	1.526300	1.530300	1.534200	1.537900
25.000000	0.918300	1.155700	1.179300	1.229900	1.262500	1.268600	1.273300	1.292800	1.308700	1.323400	1.337300	1.350600	1.364400	1.385300	1.397300	1.406600	1.413700	1.419700	1.424700	1.428600	1.431900	1.434800	1.437300	1.439500	1.441300	1.447400	1.465200	1.472700	1.479300	1.485300	1.490900	1.496100	1.501400	1.506800	1.512800	1.530800	1.535900	1.540500	1.544700
25.500000	0.908400	1.151050	1.172400	1.226400	1.260700	1.265100	1.262400	1.281550	1.299300	1.313000	1.328250	1.343550	1.358950	1.378250	1.395450	1.404200	1.410300	1.414100	1.418250	1.421450	1.424100	1.377350	1.428350	1.430000	1.431350	1.441150	1.450050	1.457200	1.470500	1.476700	1.477500	1.492450	1.497950	1.496400	1.508700	1.520050	1.529300	1.534200	1.538750
26.000000	0.898500	1.146400	1.165500	1.222900	1.258900	1.261600	1.251500	1.270300	1.289900	1.302600	1.319200	1.336500	1.353500	1.371200	1.393600	1.401800	1.406900	1.408500	1.411800	1.414300	1.416300	1.319900	1.419400	1.420500	1.421400	1.434900	1.434900	1.441700	1.461700	1.468100	1.464100	1.488800	1.494500	1.486000	1.504600	1.509300	1.522700	1.527900	1.532800
26.500000	0.892250	1.142400	1.159450	1.219650	1.257150	1.258200	1.246000	1.264650	1.285050	1.297600	1.314300	1.331900	1.349200	1.367350	1.391500	1.399150	1.403300	1.402850	1.405400	1.407200	1.408600	1.301050	1.410650	1.411350	1.411750	1.426200	1.425800	1.432750	1.453000	1.459550	1.456000	1.482200	1.488050	1.478600	1.498400	1.503200	1.517450	1.522900	1.528000
27.000000	0.886000	1.138400	1.153400	1.216400	1.255400	1.254800	1.240500	1.259000	1.280200	1.292600	1.309400	1.327300	1.344900	1.363500	1.389400	1.396500	1.399700	1.397200	1.399000	1.400100	1.400900	1.282200	1.401900	1.402200	1.402100	1.417500	1.416700	1.423800	1.444300	1.451000	1.447900	1.475600	1.481600	1.471200	1.492200	1.497100	1.512200	1.517900	1.523200
27.500000	0.882600	1.134950	1.148200	1.213450	1.253650	1.251650	1.235450	1.253800	1.275650	1.287900	1.304750	1.322900	1.340700	1.359650	1.387100	1.393700	1.396000	1.391650	1.392750	1.393250	1.393500	1.265800	1.393550	1.393450	1.392950	1.409100	1.407950	1.415200	1.435800	1.442650	1.440000	1.469000	1.475050	1.463900	1.485900	1.490900	1.506700	1.512600	1.518100
28.000000	0.879200	1.131500	1.143000	1.210500	1.251900	1.248500	1.230400	1.248600	1.271100	1.283200	1.300100	1.318500	1.336500	1.355800	1.384800	1.390900	1.392300	1.386100	1.386500	1.386400	1.386100	1.249400	1.385200	1.384700	1.383800	1.400700	1.399200	1.406600	1.427300	1.434300	1.432100	1.462400	1.468500	1.456600	1.479600	1.484700	1.501200	1.507300	1.513000
28.500000	0.878000	1.128650	1.138650	1.207850	1.250200	1.245550	1.225900	1.243850	1.266900	1.278850	1.295700	1.314250	1.332450	1.352050	1.382350	1.387950	1.388550	1.380750	1.380450	1.379850	1.379050	1.235400	1.377350	1.376450	1.375250	1.392750	1.390950	1.398400	1.419200	1.426300	1.424500	1.455850	1.462050	1.449450	1.473300	1.478450	1.495650	1.501850	1.507700
29.000000	0.876800	1.125800	1.134300	1.205200	1.248500	1.242600	1.221400	1.239100	1.262700	1.274500	1.291300	1.310000	1.328400	1.348300	1.379900	1.385000	1.384800	1.375400	1.374400	1.373300	1.372000	1.221400	1.369500	1.368200	1.366700	1.384800	1.382700	1.390200	1.411100	1.418300	1.416900	1.449300	1.455600	1.442300	1.467000	1.472200	1.490100	1.496400	1.502400
29.500000	0.877150	1.123450	1.130650	1.202800	1.246900	1.239900	1.217350	1.234850	1.258850	1.270450	1.287250	1.306050	1.324500	1.344600	1.377400	1.382050	1.381100	1.370200	1.368650	1.367050	1.365350	1.209550	1.362150	1.360550	1.358700	1.377350	1.374950	1.382500	1.403400	1.410650	1.409600	1.442900	1.449250	1.435350	1.460750	1.466050	1.484450	1.490950	1.497050
30.000000	0.877500	1.121100	1.127000	1.200400	1.245300	1.237200	1.213300	1.230600	1.255000	1.266400	1.283200	1.302100	1.320600	1.340900	1.374900	1.379100	1.377400	1.365000	1.362900	1.360800	1.358700	1.197700	1.354800	1.352900	1.350700	1.369900	1.367200	1.374800	1.395700	1.403000	1.402300	1.436500	1.442900	1.428400	1.454500	1.459900	1.478800	1.485500	1.491700
31.000000	0.880700	1.117400	1.121100	1.196200	1.242400	1.232300	1.206200	1.223000	1.247900	1.259000	1.275600	1.294600	1.313200	1.333800	1.369700	1.373100	1.370100	1.355100	1.352100	1.349100	1.346300	1.177800	1.341100	1.338600	1.336000	1.355900	1.352700	1.360400	1.381200	1.388600	1.388500	1.424100	1.430700	1.415100	1.442400	1.447900	1.467700	1.474600	1.481000
32.000000	0.885600	1.114500	1.116300	1.192500	1.239500	1.227800	1.200000	1.216300	1.241600	1.252300	1.268700	1.287600	1.306200	1.327000	1.364600	1.367200	1.363000	1.345800	1.341800	1.338200	1.334700	1.161300	1.328400	1.325500	1.322500	1.343000	1.339400	1.347100	1.367600	1.375000	1.375500	1.412200	1.418800	1.402400	1.430700	1.436200	1.456700	1.463800	1.470400
33.000000	0.891700	1.112200	1.112600	1.189300	1.236900	1.223700	1.194500	1.210300	1.235800	1.246100	1.262200	1.281100	1.299600	1.320500	1.359400	1.361300	1.356100	1.336900	1.332200	1.327900	1.324000	1.147700	1.316800	1.313500	1.310100	1.330900	1.327000	1.334700	1.355000	1.362300	1.363400	1.400900	1.407400	1.390400	1.419300	1.424900	1.446000	1.453200	1.459900
34.000000	0.898600	1.110600	1.109700	1.186400	1.234400	1.220000	1.189700	1.205000	1.230500	1.240500	1.256300	1.275000	1.293400	1.314300	1.354300	1.355500	1.349400	1.328600	1.323200	1.318400	1.314000	1.136600	1.306000	1.302500	1.298700	1.319800	1.315700	1.323200	1.343200	1.350500	1.351900	1.390000	1.396500	1.379000	1.408400	1.414000	1.435600	1.442800	1.449600
35.000000	0.906000	1.109400	1.107400	1.183900	1.231900	1.216500	1.185400	1.200200	1.225700	1.235300	1.250800	1.269300	1.287400	1.308300	1.349100	1.349800	1.342900	1.320600	1.314700	1.309400	1.304700	1.127600	1.296100	1.292300	1.288400	1.309500	1.305200	1.312600	1.332100	1.339400	1.341200	1.379600	1.386100	1.368200	1.397900	1.403500	1.425400	1.432700	1.439600
36.000000	0.913600	1.108600	1.105700	1.181500	1.229500	1.213300	1.181600	1.195900	1.221300	1.230500	1.245600	1.263800	1.281800	1.302500	1.343900	1.344100	1.336500	1.313000	1.306700	1.301100	1.296000	1.120300	1.287000	1.282900	1.278800	1.300000	1.295400	1.302800	1.321800	1.329000	1.331200	1.369700	1.376100	1.357900	1.387800	1.393400	1.415500	1.422800	1.429700
37.000000	0.921300	1.107900	1.104400	1.179300	1.227100	1.210200	1.178200	1.192000	1.217100	1.226000	1.240700	1.258600	1.276300	1.296800	1.338700	1.338400	1.330200	1.305800	1.299100	1.293100	1.287800	1.114400	1.278400	1.274200	1.270000	1.291000	1.286400	1.293600	1.312200	1.319200	1.321700	1.360100	1.366500	1.348100	1.378100	1.383600	1.405800	1.413100	1.420000
38.000000	0.928700	1.107400	1.103400	1.177200	1.224600	1.207100	1.175000	1.188300	1.213100	1.221600	1.236000	1.253600	1.271000	1.291200	1.333400	1.332700	1.323900	1.298800	1.291800	1.285600	1.280100	1.109600	1.270400	1.266100	1.261800	1.282600	1.277900	1.284900	1.303000	1.309900	1.312600	1.350900	1.357200	1.338700	1.368600	1.374100	1.396300	1.403600	1.410500
39.000000	0.935900	1.106900	1.102500	1.175000	1.222000	1.204100	1.171900	1.184800	1.209200	1.217400	1.231400	1.248700	1.265700	1.285700	1.328000	1.326900	1.317700	1.292000	1.284700	1.278400	1.272700	1.105700	1.262800	1.258500	1.254100	1.274600	1.269800	1.276700	1.294300	1.301100	1.304000	1.341900	1.348100	1.329700	1.359400	1.364800	1.386900	1.394200	1.401000
40.000000	0.942700	1.106400	1.101600	1.172800	1.219200	1.200900	1.168900	1.181300	1.205300	1.213300	1.226800	1.243700	1.260400	1.280100	1.322400	1.321000	1.311400	1.285300	1.277800	1.271300	1.265600	1.102300	1.255500	1.251100	1.246700	1.266900	1.262100	1.268900	1.285900	1.292600	1.295600	1.333200	1.339200	1.320900	1.350300	1.355600	1.377700	1.384800	1.391700
41.000000	0.949000	1.105600	1.100600	1.170300	1.216100	1.197700	1.165900	1.177900	1.201400	1.209000	1.222200	1.238700	1.255100	1.274500	1.316600	1.314900	1.305000	1.278600	1.271000	1.264400	1.258600	1.099400	1.248500	1.244000	1.239600	1.259500	1.254700	1.261200	1.277800	1.284300	1.287400	1.324500	1.330500	1.312200	1.341400	1.346600	1.368400	1.375500	1.382300
42.000000	0.954600	1.104600	1.099500	1.167700	1.212800	1.194200	1.162700	1.174300	1.197400	1.204700	1.217500	1.233600	1.249600	1.268600	1.310600	1.308600	1.298500	1.271800	1.264200	1.257500	1.251700	1.096800	1.241500	1.237100	1.232700	1.252100	1.247400	1.253700	1.269800	1.276100	1.279400	1.315900	1.321700	1.303700	1.332400	1.337600	1.359200	1.366200	1.372900
43.000000	0.959600	1.103300	1.098100	1.164700	1.209100	1.190400	1.159300	1.170500	1.193100	1.200100	1.212500	1.228300	1.243900	1.262600	1.304200	1.302000	1.291800	1.265000	1.257300	1.250600	1.244700	1.094200	1.234600	1.230200	1.225800	1.244800	1.240100	1.246300	1.261900	1.268000	1.271400	1.307300	1.313000	1.295100	1.323500	1.328500	1.349900	1.356800	1.363400
44.000000	0.963900	1.101600	1.096300	1.161400	1.204900	1.186300	1.155600	1.166400	1.188500	1.195300	1.207400	1.222700	1.238000	1.256300	1.297500	1.295200	1.284700	1.258000	1.250200	1.243600	1.237700	1.091500	1.227600	1.223200	1.218800	1.237500	1.232800	1.238800	1.253900	1.259900	1.263300	1.298500	1.304100	1.286500	1.314400	1.319300	1.340400	1.347200	1.353700
45.000000	0.967400	1.099400	1.094100	1.157600	1.200400	1.181800	1.151600	1.162000	1.183600	1.190200	1.201800	1.216800	1.231700	1.249600	1.290400	1.287900	1.277400	1.250700	1.242900	1.236300	1.230500	1.088700	1.220400	1.216100	1.211800	1.230000	1.225400	1.231200	1.245800	1.251600	1.255100	1.289700	1.295100	1.277800	1.305200	1.310000	1.330700	1.337400	1.343800
46.000000	0.970100	1.096800	1.091500	1.153400	1.195300	1.176800	1.147100	1.157200	1.178300	1.184600	1.195900	1.210500	1.225100	1.242600	1.282900	1.280300	1.269700	1.243100	1.235400	1.228800	1.223000	1.085600	1.213100	1.208800	1.204500	1.222200	1.217700	1.223400	1.237500	1.243200	1.246700	1.280500	1.285900	1.268800	1.295700	1.300400	1.320800	1.327400	1.333700
47.000000	0.971900	1.093500	1.088300	1.148600	1.189700	1.171300	1.142200	1.151900	1.172600	1.178600	1.189600	1.203800	1.218000	1.235200	1.274900	1.272100	1.261500	1.235100	1.227400	1.220900	1.215200	1.082200	1.205400	1.201100	1.196900	1.214200	1.209800	1.215300	1.228900	1.234500	1.238000	1.271100	1.276300	1.259600	1.285900	1.290500	1.310600	1.317100	1.323200
48.000000	0.972800	1.089600	1.084500	1.143200	1.183500	1.165300	1.136700	1.146200	1.166300	1.172100	1.182700	1.196600	1.210400	1.227200	1.266400	1.263500	1.252900	1.226800	1.219100	1.212700	1.207000	1.078200	1.197300	1.193200	1.189000	1.205900	1.201500	1.206800	1.220100	1.225400	1.228900	1.261300	1.266400	1.250000	1.275800	1.280300	1.300000	1.306400	1.312400
49.000000	0.972800	1.085100	1.080100	1.137200	1.176700	1.158600	1.130700	1.139800	1.159400	1.165100	1.175400	1.188800	1.202300	1.218700	1.257400	1.254400	1.243800	1.217900	1.210300	1.203900	1.198400	1.073800	1.188800	1.184700	1.180700	1.197100	1.192800	1.198000	1.210800	1.216000	1.219500	1.251200	1.256100	1.240000	1.265300	1.269700	1.289000	1.295200	1.301200
50.000000	0.971800	1.079900	1.075000	1.130600	1.169200	1.151400	1.124000	1.132800	1.152000	1.157400	1.167400	1.180500	1.193600	1.209700	1.247700	1.244600	1.234100	1.208500	1.201000	1.194700	1.189200	1.068700	1.179900	1.175800	1.171900	1.187800	1.183600	1.188600	1.201000	1.206100	1.209600	1.240500	1.245400	1.229600	1.254300	1.258600	1.277500	1.283600	1.289500
51.000000	0.969900	1.073900	1.069100	1.123300	1.161000	1.143400	1.116700	1.125200	1.143900	1.149100	1.158800	1.171500	1.184400	1.200000	1.237400	1.234300	1.223800	1.198500	1.191200	1.185000	1.179500	1.062900	1.170400	1.166400	1.162500	1.178100	1.173900	1.178800	1.190800	1.195700	1.199200	1.229400	1.234100	1.218600	1.242800	1.247000	1.265600	1.271500	1.277300
52.000000	0.967000	1.067100	1.062500	1.115200	1.152100	1.134700	1.108600	1.116900	1.135100	1.140100	1.149500	1.161900	1.174400	1.189700	1.226500	1.223300	1.212900	1.188000	1.180700	1.174600	1.169300	1.056500	1.160300	1.156400	1.152600	1.167700	1.163700	1.168400	1.180000	1.184800	1.188200	1.217700	1.222300	1.207200	1.230800	1.234900	1.253100	1.258900	1.264500
53.000000	0.963100	1.059600	1.055100	1.106300	1.142400	1.125300	1.099800	1.107800	1.125500	1.130500	1.139500	1.151600	1.163800	1.178700	1.214800	1.211600	1.201300	1.176800	1.169600	1.163600	1.158400	1.049300	1.149500	1.145800	1.142000	1.156700	1.152800	1.157400	1.168600	1.173200	1.176600	1.205400	1.209900	1.195100	1.218100	1.222100	1.240000	1.245700	1.251200
54.000000	0.958200	1.051200	1.046900	1.096700	1.132000	1.115200	1.090200	1.098000	1.115300	1.120000	1.128800	1.140600	1.152400	1.167000	1.202500	1.199200	1.189000	1.164900	1.157800	1.151900	1.146800	1.041300	1.138100	1.134400	1.130800	1.145100	1.141200	1.145700	1.156500	1.161100	1.164400	1.192500	1.196800	1.182400	1.204900	1.208800	1.226200	1.231800	1.237200
55.000000	0.952200	1.042000	1.037800	1.086300	1.120800	1.104200	1.079900	1.087400	1.104200	1.108800	1.117300	1.128800	1.140300	1.154600	1.189400	1.186100	1.176000	1.152200	1.145300	1.139500	1.134500	1.032400	1.126000	1.122400	1.118900	1.132800	1.129000	1.133300	1.143800	1.148200	1.151500	1.178900	1.183100	1.169000	1.191000	1.194800	1.211900	1.217300	1.222600
56.000000	0.945200	1.031900	1.027800	1.075000	1.108700	1.092400	1.068700	1.076000	1.092400	1.096800	1.105100	1.116200	1.127500	1.141400	1.175500	1.172200	1.162300	1.138900	1.132100	1.126400	1.121500	1.022700	1.113200	1.109700	1.106200	1.119700	1.116000	1.120200	1.130400	1.134700	1.138000	1.164600	1.168800	1.155000	1.176400	1.180100	1.196800	1.202200	1.207300
57.000000	0.937200	1.020900	1.017000	1.062900	1.095800	1.079800	1.056600	1.063700	1.079700	1.084000	1.092000	1.102800	1.113800	1.127400	1.160900	1.157600	1.147800	1.124800	1.118100	1.112500	1.107700	1.012200	1.099600	1.096200	1.092800	1.105900	1.102300	1.106400	1.116200	1.120400	1.123600	1.149600	1.153600	1.140200	1.161100	1.164700	1.181100	1.186300	1.191300
58.000000	0.928200	1.009000	1.005200	1.049900	1.082100	1.066300	1.043700	1.050600	1.066200	1.070300	1.078100	1.088600	1.099300	1.112600	1.145400	1.142200	1.132400	1.109900	1.103300	1.097900	1.093200	1.000700	1.085200	1.081900	1.078600	1.091300	1.087800	1.091700	1.101300	1.105300	1.108500	1.133900	1.137800	1.124600	1.145100	1.148600	1.164600	1.169700	1.174600
59.000000	0.918100	0.996200	0.992500	1.036000	1.067400	1.052000	1.029900	1.036600	1.051800	1.055800	1.063300	1.073600	1.084000	1.097000	1.129200	1.125900	1.116300	1.094200	1.087800	1.082400	1.077800	0.988300	1.070000	1.066700	1.063500	1.075900	1.072500	1.076300	1.085600	1.089500	1.092700	1.117400	1.121200	1.108300	1.128300	1.131700	1.147300	1.152300	1.157100
60.000000	0.906900	0.982500	0.979000	1.021300	1.052000	1.036800	1.015300	1.021800	1.036500	1.040400	1.047700	1.057800	1.067900	1.080500	1.112100	1.108800	1.099400	1.077700	1.071400	1.066100	1.061600	0.974900	1.054000	1.050800	1.047700	1.059700	1.056400	1.060100	1.069100	1.072900	1.076000	1.100100	1.103800	1.091300	1.110700	1.114100	1.129300	1.134200	1.138900
61.000000	0.894800	0.967800	0.964400	1.005600	1.035600	1.020700	0.999700	1.006000	1.020400	1.024200	1.031300	1.041000	1.050900	1.063200	1.094200	1.090900	1.081600	1.060300	1.054100	1.049000	1.044600	0.960600	1.037200	1.034000	1.031000	1.042700	1.039500	1.043000	1.051700	1.055500	1.058500	1.082000	1.085600	1.073400	1.092400	1.095600	1.110500	1.115300	1.119900
62.000000	0.881600	0.952300	0.949000	0.989100	1.018400	1.003800	0.983300	0.989400	1.003400	1.007100	1.014000	1.023400	1.033100	1.045100	1.075400	1.072200	1.063000	1.042100	1.036100	1.031000	1.026700	0.945400	1.019500	1.016400	1.013400	1.024800	1.021700	1.025100	1.033600	1.037200	1.040200	1.063100	1.066600	1.054700	1.073200	1.076400	1.090900	1.095600	1.100100
63.000000	0.867300	0.935700	0.932600	0.971600	1.000200	0.985900	0.965900	0.971800	0.985500	0.989100	0.995700	1.005000	1.014400	1.026100	1.055800	1.052600	1.043600	1.023100	1.017100	1.012200	1.008000	0.929200	1.000900	0.998000	0.995000	1.006100	1.003000	1.006400	1.014600	1.018100	1.021100	1.043400	1.046800	1.035100	1.053200	1.056300	1.070600	1.075100	1.079500
64.000000	0.852100	0.918300	0.915200	0.953200	0.981200	0.967100	0.947600	0.953400	0.966700	0.970200	0.976700	0.985700	0.994800	1.006300	1.035400	1.032200	1.023300	1.003200	0.997400	0.992600	0.988400	0.912100	0.981500	0.978600	0.975800	0.986500	0.983500	0.986800	0.994800	0.998200	1.001100	1.022800	1.026200	1.014800	1.032400	1.035500	1.049400	1.053800	1.058100
65.000000	0.835800	0.900000	0.897000	0.934000	0.961300	0.947500	0.928500	0.934100	0.947000	0.950400	0.956700	0.965500	0.974400	0.985600	1.014100	1.010900	1.002200	0.982400	0.976700	0.972000	0.968000	0.894000	0.961300	0.958400	0.955700	0.966100	0.963200	0.966400	0.974100	0.977400	0.980200	1.001400	1.004700	0.993600	1.010800	1.013800	1.027400	1.031700	1.035900
66.000000	0.818600	0.880700	0.877800	0.913800	0.940500	0.927000	0.908400	0.913800	0.926500	0.929700	0.935800	0.944400	0.953100	0.964000	0.991900	0.988800	0.980200	0.960800	0.955300	0.950700	0.946700	0.874900	0.940100	0.937400	0.934700	0.944800	0.942000	0.945100	0.952600	0.955800	0.958600	0.979200	0.982400	0.971600	0.988400	0.991300	1.004500	1.008800	1.012900
67.000000	0.800300	0.860500	0.857700	0.892800	0.918800	0.905600	0.887400	0.892700	0.905000	0.908200	0.914100	0.922400	0.930900	0.941600	0.968900	0.965800	0.957400	0.938400	0.932900	0.928400	0.924600	0.855000	0.918100	0.915400	0.912800	0.922700	0.919900	0.922900	0.930200	0.933300	0.936100	0.956200	0.959300	0.948700	0.965100	0.968000	0.980900	0.985100	0.989100
68.000000	0.781100	0.839400	0.836700	0.870800	0.896300	0.883300	0.865600	0.870700	0.882700	0.885800	0.891600	0.899700	0.907900	0.918300	0.945100	0.942000	0.933700	0.915100	0.909800	0.905400	0.901600	0.834000	0.895300	0.892600	0.890100	0.899700	0.897000	0.899900	0.907000	0.910000	0.912700	0.932400	0.935400	0.925100	0.941000	0.943800	0.956500	0.960500	0.964500
69.000000	0.761000	0.817400	0.814800	0.848000	0.872900	0.860100	0.842800	0.847800	0.859500	0.862500	0.868100	0.876000	0.884100	0.894200	0.920400	0.917400	0.909200	0.891000	0.885800	0.881400	0.877700	0.812200	0.871600	0.869000	0.866500	0.875900	0.873300	0.876100	0.882900	0.885900	0.888500	0.907700	0.910700	0.900600	0.916200	0.918900	0.931200	0.935200	0.939000
70.000000	0.739900	0.794600	0.792000	0.824300	0.848600	0.836100	0.819200	0.824100	0.835500	0.838400	0.843800	0.851500	0.859400	0.869300	0.895000	0.892000	0.883900	0.866100	0.860900	0.856700	0.853100	0.789500	0.847100	0.844600	0.842100	0.851300	0.848700	0.851400	0.858100	0.861000	0.863500	0.882200	0.885100	0.875300	0.890500	0.893100	0.905200	0.909100	0.912800
71.000000	0.717900	0.770900	0.768300	0.799800	0.823600	0.811300	0.794800	0.799500	0.810600	0.813400	0.818700	0.826200	0.833900	0.843600	0.868700	0.865700	0.857800	0.840300	0.835300	0.831100	0.827600	0.765800	0.821700	0.819300	0.816900	0.825800	0.823300	0.825900	0.832400	0.835200	0.837700	0.856000	0.858800	0.849100	0.864000	0.866600	0.878400	0.882200	0.885800
72.000000	0.695000	0.746300	0.743800	0.774500	0.797700	0.785700	0.769500	0.774100	0.784900	0.787600	0.792800	0.800100	0.807600	0.817000	0.841700	0.838700	0.830900	0.813800	0.808800	0.804800	0.801300	0.741300	0.795600	0.793200	0.790800	0.799500	0.797000	0.799600	0.805900	0.808700	0.811100	0.828900	0.831700	0.822200	0.836800	0.839300	0.850800	0.854500	0.858100
73.000000	0.671200	0.720900	0.718400	0.748400	0.771000	0.759200	0.743400	0.747900	0.758400	0.761100	0.766100	0.773200	0.780500	0.789700	0.813800	0.810900	0.803300	0.786400	0.781600	0.777600	0.774200	0.715900	0.768600	0.766300	0.764000	0.772400	0.770000	0.772600	0.778700	0.781300	0.783800	0.801100	0.803800	0.794600	0.808800	0.811200	0.822500	0.826100	0.829600
74.000000	0.646600	0.694800	0.692300	0.721400	0.743600	0.732000	0.716500	0.720900	0.731200	0.733700	0.738600	0.745500	0.752700	0.761600	0.785300	0.782400	0.774800	0.758300	0.753600	0.749700	0.746400	0.689700	0.740900	0.738600	0.736400	0.744600	0.742300	0.744700	0.750600	0.753200	0.755600	0.772500	0.775100	0.766200	0.780000	0.782400	0.793400	0.796900	0.800400
75.000000	0.621200	0.667800	0.665300	0.693700	0.715400	0.704000	0.688900	0.693100	0.703100	0.705600	0.710400	0.717100	0.724000	0.732800	0.755900	0.753100	0.745700	0.729500	0.724800	0.721000	0.717800	0.662700	0.712400	0.710200	0.708000	0.716000	0.713700	0.716100	0.721900	0.724400	0.726700	0.743300	0.745800	0.737000	0.750500	0.752800	0.763600	0.767100	0.770400
76.000000	0.595000	0.640100	0.637600	0.665300	0.686400	0.675300	0.660500	0.664500	0.674300	0.676700	0.681400	0.688000	0.694700	0.703300	0.725900	0.723100	0.715800	0.699900	0.695400	0.691600	0.688500	0.634900	0.683200	0.681000	0.678900	0.686700	0.684500	0.686800	0.692400	0.694900	0.697100	0.713300	0.715700	0.707100	0.720300	0.722600	0.733100	0.736500	0.739800
77.000000	0.568000	0.611600	0.609200	0.636100	0.656800	0.645800	0.631400	0.635300	0.644800	0.647100	0.651700	0.658100	0.664700	0.673000	0.695200	0.692400	0.685200	0.669700	0.665200	0.661600	0.658400	0.606400	0.653300	0.651200	0.649100	0.656700	0.654500	0.656800	0.662200	0.664600	0.666800	0.682600	0.685000	0.676600	0.689500	0.691700	0.702000	0.705300	0.708500
78.000000	0.540300	0.582500	0.580000	0.606300	0.626400	0.615700	0.601600	0.605400	0.614600	0.616900	0.621300	0.627600	0.634000	0.642100	0.663900	0.661100	0.654000	0.638800	0.634400	0.630800	0.627700	0.577100	0.622700	0.620600	0.618600	0.626000	0.623900	0.626100	0.631400	0.633700	0.635900	0.651200	0.653600	0.645400	0.658000	0.660100	0.670200	0.673400	0.676500
79.000000	0.511800	0.552700	0.550200	0.575800	0.595500	0.584900	0.571100	0.574800	0.583800	0.586000	0.590300	0.596400	0.602600	0.610600	0.631900	0.629100	0.622200	0.607200	0.602900	0.599400	0.596400	0.547100	0.591500	0.589400	0.587400	0.594700	0.592600	0.594700	0.599900	0.602100	0.604300	0.619300	0.621500	0.613500	0.625800	0.627900	0.637800	0.640900	0.644000
80.000000	0.482800	0.522200	0.519700	0.544600	0.563900	0.553500	0.540000	0.543500	0.552300	0.554400	0.558600	0.564600	0.570700	0.578400	0.599300	0.596500	0.589700	0.575000	0.570800	0.567400	0.564400	0.516400	0.559600	0.557600	0.555700	0.562700	0.560700	0.562800	0.567800	0.570000	0.572000	0.586700	0.588900	0.581100	0.593100	0.595100	0.604700	0.607800	0.610800
81.000000	0.453000	0.491200	0.488700	0.512900	0.531700	0.521500	0.508200	0.511700	0.520300	0.522300	0.526400	0.532200	0.538100	0.545700	0.566100	0.563400	0.556700	0.542300	0.538100	0.534700	0.531900	0.485200	0.527200	0.525200	0.523300	0.530200	0.528200	0.530200	0.535100	0.537200	0.539200	0.553500	0.555700	0.548000	0.559800	0.561700	0.571200	0.574200	0.577100
82.000000	0.422700	0.459500	0.457000	0.480600	0.499000	0.489000	0.475900	0.479300	0.487600	0.489600	0.493600	0.499300	0.505000	0.512400	0.532400	0.529700	0.523100	0.509000	0.504900	0.501600	0.498800	0.453300	0.494100	0.492200	0.490400	0.497100	0.495100	0.497100	0.501800	0.503900	0.505900	0.519800	0.522000	0.514400	0.525900	0.527800	0.537100	0.540000	0.542800
83.000000	0.391800	0.427300	0.424800	0.447800	0.465700	0.455900	0.443100	0.446300	0.454500	0.456400	0.460300	0.465800	0.471400	0.478600	0.498200	0.495500	0.489000	0.475100	0.471100	0.467900	0.465100	0.420800	0.460600	0.458700	0.456900	0.463400	0.461500	0.463400	0.468100	0.470100	0.472000	0.485700	0.487700	0.480400	0.491600	0.493400	0.502500	0.505300	0.508100
84.000000	0.360400	0.394700	0.392000	0.414500	0.432000	0.422300	0.409800	0.412900	0.420800	0.422700	0.426500	0.431800	0.437300	0.444300	0.463500	0.460900	0.454400	0.440800	0.436900	0.433700	0.431000	0.387900	0.426600	0.424700	0.423000	0.429300	0.427400	0.429300	0.433800	0.435800	0.437700	0.451000	0.453000	0.445800	0.456700	0.458600	0.467400	0.470200	0.472900
85.000000	0.328400	0.361500	0.358900	0.380700	0.397800	0.388300	0.376000	0.379000	0.386700	0.388500	0.392200	0.397500	0.402800	0.409600	0.428400	0.425800	0.419400	0.406100	0.402200	0.399100	0.396400	0.354400	0.392100	0.390300	0.388600	0.394800	0.392900	0.394700	0.399100	0.401000	0.402900	0.415900	0.417800	0.410800	0.421500	0.423300	0.431900	0.434600	0.437300
86.000000	0.296100	0.327900	0.325200	0.346500	0.363200	0.353800	0.341800	0.344700	0.352200	0.353900	0.357500	0.362600	0.367800	0.374500	0.392900	0.390300	0.384100	0.370900	0.367200	0.364100	0.361500	0.320500	0.357200	0.355400	0.353700	0.359800	0.358000	0.359800	0.364000	0.365900	0.367700	0.380400	0.382300	0.375400	0.385800	0.387600	0.396000	0.398700	0.401300
87.000000	0.263300	0.294000	0.291200	0.311900	0.328200	0.319000	0.307200	0.310000	0.317300	0.319000	0.322500	0.327500	0.332500	0.339000	0.357000	0.354400	0.348300	0.335400	0.331700	0.328700	0.326100	0.286200	0.321900	0.320200	0.318500	0.324400	0.322700	0.324400	0.328500	0.330400	0.332100	0.344500	0.346400	0.339600	0.349800	0.351500	0.359800	0.362400	0.364900
88.000000	0.230100	0.259600	0.256800	0.277000	0.292900	0.283900	0.272200	0.274900	0.282000	0.283700	0.287100	0.292000	0.296900	0.303200	0.320800	0.318200	0.312200	0.299600	0.295900	0.293000	0.290400	0.251500	0.286300	0.284600	0.283000	0.288800	0.287000	0.288700	0.292800	0.294500	0.296200	0.308300	0.310100	0.303500	0.313500	0.315200	0.323200	0.325800	0.328300
89.000000	0.196700	0.225000	0.222100	0.241700	0.257300	0.248400	0.237000	0.239600	0.246500	0.248100	0.251400	0.256200	0.260900	0.267100	0.284300	0.281800	0.275900	0.263500	0.259900	0.256900	0.254500	0.216500	0.250400	0.248800	0.247200	0.252800	0.251100	0.252700	0.256700	0.258400	0.260000	0.271900	0.273600	0.267100	0.276900	0.278500	0.286400	0.288900	0.291300
90.000000	0.162900	0.190100	0.187200	0.206300	0.221500	0.212700	0.201500	0.204000	0.210700	0.212200	0.215500	0.220100	0.224700	0.230800	0.247700	0.245100	0.239300	0.227100	0.223600	0.220700	0.218200	0.181200	0.214300	0.212700	0.211100	0.216600	0.214900	0.216500	0.220300	0.222000	0.223600	0.235200	0.236900	0.230500	0.240100	0.241700	0.249400	0.251800	0.254200
91.000000	0.128900	0.155000	0.152000	0.170600	0.185400	0.176800	0.165800	0.168100	0.174700	0.176200	0.179400	0.183900	0.188400	0.194200	0.210800	0.208300	0.202500	0.190500	0.187000	0.184200	0.181800	0.145700	0.177900	0.176300	0.174800	0.180200	0.178500	0.180100	0.183800	0.185400	0.187000	0.198300	0.200000	0.193700	0.203100	0.204600	0.212200	0.214500	0.216800
92.000000	0.094700	0.119700	0.116700	0.134700	0.149200	0.140700	0.129900	0.132100	0.138500	0.139900	0.143100	0.147400	0.151800	0.157600	0.173700	0.171200	0.165600	0.153800	0.150400	0.147600	0.145200	0.110000	0.141400	0.139900	0.138400	0.143600	0.142000	0.143500	0.147100	0.148700	0.150200	0.161300	0.162900	0.156800	0.165900	0.167400	0.174800	0.177100	0.179300
93.000000	0.060300	0.084300	0.081200	0.098700	0.112900	0.104500	0.093900	0.096000	0.102200	0.103600	0.106700	0.110900	0.115200	0.120800	0.136600	0.134100	0.128500	0.117000	0.113600	0.110900	0.108500	0.074100	0.104800	0.103300	0.101800	0.106900	0.105300	0.106800	0.110300	0.111800	0.113300	0.124100	0.125700	0.119700	0.128600	0.130100	0.137300	0.139600	0.141800
94.000000	0.025900	0.048800	0.045600	0.062700	0.076500	0.068300	0.057800	0.059800	0.065900	0.067200	0.070200	0.074300	0.078500	0.083900	0.099400	0.096900	0.091400	0.080100	0.076800	0.074100	0.071800	0.038200	0.068100	0.066600	0.065100	0.070100	0.068600	0.070000	0.073400	0.074900	0.076400	0.086900	0.088500	0.082600	0.091300	0.092700	0.099800	0.102000	0.104100
95.000000	-0.008700	0.013300	0.009900	0.026600	0.040100	0.032000	0.021600	0.023600	0.029500	0.030700	0.033700	0.037700	0.041700	0.047000	0.062200	0.059700	0.054300	0.043200	0.039900	0.037200	0.035000	0.002200	0.031400	0.029900	0.028500	0.033300	0.031800	0.033200	0.036500	0.038000	0.039400	0.049700	0.051200	0.045400	0.054000	0.055300	0.062300	0.064400	0.066500
96.000000	-0.043200	-0.022300	-0.025700	-0.009500	0.003600	-0.004300	-0.014500	-0.012600	-0.006900	-0.005700	-0.002800	0.001100	0.005000	0.010100	0.025000	0.022600	0.017200	0.006300	0.003000	0.000400	-0.001800	-0.033800	-0.005300	-0.006800	-0.008200	-0.003400	-0.004900	-0.003600	-0.000300	0.001100	0.002400	0.012500	0.014000	0.008300	0.016700	0.018000	0.024800	0.026900	0.028900
97.000000	-0.077700	-0.057800	-0.061300	-0.045500	-0.032700	-0.040500	-0.050500	-0.048800	-0.043200	-0.042100	-0.039300	-0.035400	-0.031700	-0.026600	-0.012100	-0.014500	-0.019800	-0.030500	-0.033700	-0.036300	-0.038500	-0.069800	-0.042000	-0.043400	-0.044800	-0.040100	-0.041600	-0.040300	-0.037100	-0.035800	-0.034400	-0.024600	-0.023200	-0.028700	-0.020500	-0.019200	-0.012600	-0.010600	-0.008600
98.000000	-0.112100	-0.093200	-0.096700	-0.081400	-0.068900	-0.076600	-0.086500	-0.084800	-0.079400	-0.078300	-0.075600	-0.071900	-0.068200	-0.063300	-0.049000	-0.051500	-0.056700	-0.067200	-0.070400	-0.072900	-0.075000	-0.105600	-0.078500	-0.079900	-0.081200	-0.076700	-0.078100	-0.076900	-0.073800	-0.072500	-0.071200	-0.061500	-0.060200	-0.065600	-0.057600	-0.056400	-0.049900	-0.047900	-0.045900
99.000000	-0.146400	-0.128400	-0.132100	-0.117200	-0.105000	-0.112600	-0.122300	-0.120700	-0.115500	-0.114400	-0.111700	-0.108100	-0.104500	-0.099800	-0.085800	-0.088200	-0.093400	-0.103800	-0.106900	-0.109400	-0.111500	-0.141300	-0.114800	-0.116200	-0.117600	-0.113100	-0.114500	-0.113300	-0.110300	-0.109000	-0.107800	-0.098300	-0.097000	-0.102400	-0.094500	-0.093300	-0.087000	-0.085000	-0.083100
100.000000	-0.180600	-0.163500	-0.167200	-0.152800	-0.140800	-0.148300	-0.157900	-0.156400	-0.151300	-0.150300	-0.147700	-0.144200	-0.140700	-0.136100	-0.122400	-0.124800	-0.129900	-0.140100	-0.143100	-0.145600	-0.147700	-0.176800	-0.151000	-0.152400	-0.153700	-0.149300	-0.150700	-0.149500	-0.146600	-0.145400	-0.144200	-0.134900	-0.133600	-0.138900	-0.131200	-0.130000	-0.123800	-0.121900	-0.120100
101.000000	-0.214500	-0.198300	-0.202100	-0.188100	-0.176500	-0.183800	-0.193300	-0.191800	-0.186900	-0.185900	-0.183400	-0.179900	-0.176600	-0.172100	-0.158700	-0.161100	-0.166100	-0.176100	-0.179100	-0.181600	-0.183600	-0.212100	-0.186900	-0.188200	-0.189500	-0.185300	-0.186600	-0.185500	-0.182600	-0.181400	-0.180300	-0.171200	-0.170000	-0.175100	-0.167600	-0.166500	-0.160400	-0.158600	-0.156700
102.000000	-0.248200	-0.232900	-0.236700	-0.223100	-0.211800	-0.219000	-0.228300	-0.227000	-0.222200	-0.221300	-0.218700	-0.215400	-0.212200	-0.207800	-0.194700	-0.197100	-0.202000	-0.211900	-0.214800	-0.217200	-0.219200	-0.247100	-0.222500	-0.223800	-0.225000	-0.220900	-0.222200	-0.221100	-0.218300	-0.217200	-0.216000	-0.207200	-0.206000	-0.211100	-0.203700	-0.202600	-0.196700	-0.194900	-0.193100
103.000000	-0.281500	-0.267100	-0.271000	-0.257800	-0.246700	-0.253900	-0.263000	-0.261800	-0.257200	-0.256200	-0.253800	-0.250600	-0.247400	-0.243100	-0.230300	-0.232700	-0.237600	-0.247300	-0.250200	-0.252500	-0.254500	-0.281700	-0.257700	-0.259000	-0.260200	-0.256200	-0.257500	-0.256400	-0.253700	-0.252600	-0.251500	-0.242800	-0.241700	-0.246600	-0.239500	-0.238400	-0.232600	-0.230800	-0.229100
104.000000	-0.314500	-0.300900	-0.304900	-0.292100	-0.281300	-0.288300	-0.297400	-0.296200	-0.291700	-0.290800	-0.288400	-0.285300	-0.282200	-0.278100	-0.265500	-0.267900	-0.272700	-0.282200	-0.285100	-0.287400	-0.289400	-0.316000	-0.292500	-0.293800	-0.295000	-0.291000	-0.292300	-0.291300	-0.288700	-0.287600	-0.286500	-0.278100	-0.276900	-0.326500	-0.326600	-0.326700	-0.326700	-0.326800	-0.326900
105.000000	-0.347100	-0.334300	-0.338400	-0.325900	-0.315400	-0.322400	-0.331300	-0.330200	-0.325800	-0.325000	-0.322600	-0.319600	-0.316600	-0.312600	-0.300300	-0.302600	-0.307400	-0.316700	-0.319600	-0.321900	-0.323800	-0.349800	-0.326900	-0.328100	-0.329300	-0.359500	-0.359600	-0.359600	-0.359700	-0.359800	-0.359900	-0.360000	-0.360100	-0.360200	-0.360300	-0.360400	-0.360400	-0.360500	-0.360600
106.000000	-0.379200	-0.367200	-0.371400	-0.359300	-0.349000	-0.355900	-0.364700	-0.363600	-0.359400	-0.358600	-0.356300	-0.353300	-0.350500	-0.346600	-0.334500	-0.336800	-0.341500	-0.350800	-0.353600	-0.355800	-0.392400	-0.392500	-0.392500	-0.392600	-0.392600	-0.392700	-0.392700	-0.392800	-0.392900	-0.393000	-0.393100	-0.393200	-0.393300	-0.393400	-0.393500	-0.393600	-0.393600	-0.393700	-0.393800
107.000000	-0.410900	-0.399700	-0.403900	-0.392100	-0.382100	-0.388900	-0.397500	-0.396600	-0.392500	-0.391700	-0.389500	-0.386600	-0.383800	-0.380000	-0.368200	-0.370500	-0.424400	-0.424600	-0.424800	-0.424900	-0.425000	-0.425100	-0.425100	-0.425200	-0.425200	-0.425300	-0.425300	-0.425400	-0.425500	-0.425600	-0.425700	-0.425800	-0.425900	-0.426100	-0.426100	-0.426200	-0.426300	-0.426400	-0.426500
108.000000	-0.442000	-0.431500	-0.435800	-0.424400	-0.414600	-0.421300	-0.429800	-0.429000	-0.425000	-0.424300	-0.422100	-0.419300	-0.416600	-0.412900	-0.455900	-0.456100	-0.456400	-0.456600	-0.456800	-0.456900	-0.457000	-0.457100	-0.457200	-0.457200	-0.457300	-0.457300	-0.457400	-0.457400	-0.457500	-0.457700	-0.457800	-0.457900	-0.458000	-0.458100	-0.458300	-0.458400	-0.458400	-0.458500	-0.458600
109.000000	-0.472500	-0.462700	-0.467100	-0.456000	-0.446500	-0.453100	-0.461500	-0.460700	-0.456900	-0.456200	-0.454000	-0.451300	-0.486500	-0.486900	-0.487200	-0.487500	-0.487700	-0.488000	-0.488100	-0.488300	-0.488400	-0.488500	-0.488600	-0.488600	-0.488700	-0.488700	-0.488800	-0.488800	-0.489000	-0.489100	-0.489300	-0.489400	-0.489500	-0.489600	-0.489700	-0.489900	-0.490000	-0.490000	-0.490100
110.000000	-0.503900	-0.493300	-0.497800	-0.487000	-0.477700	-0.484200	-0.492500	-0.491800	-0.488000	-0.487400	-0.485300	-0.516800	-0.517200	-0.517500	-0.517900	-0.518200	-0.518400	-0.518700	-0.518900	-0.519000	-0.519200	-0.519300	-0.519300	-0.519400	-0.519400	-0.519500	-0.519600	-0.519600	-0.519800	-0.519900	-0.520100	-0.520200	-0.520300	-0.520500	-0.520600	-0.520700	-0.520800	-0.520900	-0.521000
111.000000	-0.533100	-0.539700	-0.527800	-0.517300	-0.508200	-0.514600	-0.522800	-0.522200	-0.518500	-0.517900	-0.546500	-0.546700	-0.547100	-0.547500	-0.547800	-0.548200	-0.548400	-0.548700	-0.548900	-0.549100	-0.549200	-0.549300	-0.549400	-0.549400	-0.549500	-0.549600	-0.549600	-0.549700	-0.549900	-0.550000	-0.550200	-0.550300	-0.550400	-0.550600	-0.550700	-0.550800	-0.550900	-0.551000	-0.551100
112.000000	-0.561600	-0.568500	-0.570800	-0.546800	-0.538000	-0.544300	-0.552400	-0.551800	-0.548300	-0.547700	-0.575600	-0.575900	-0.576300	-0.576700	-0.577100	-0.577400	-0.577700	-0.578000	-0.578200	-0.578400	-0.578500	-0.578600	-0.578700	-0.578700	-0.578800	-0.578900	-0.578900	-0.579000	-0.579200	-0.579400	-0.579500	-0.579700	-0.579800	-0.579900	-0.580100	-0.580200	-0.580300	-0.580400	-0.580500
113.000000	-0.589400	-0.596600	-0.599000	-0.575500	-0.566900	-0.573200	-0.581100	-0.580600	-0.577200	-0.604100	-0.604000	-0.604300	-0.604700	-0.605100	-0.605500	-0.605900	-0.606200	-0.606400	-0.606700	-0.606900	-0.607000	-0.607100	-0.607200	-0.607300	-0.607300	-0.607400	-0.607500	-0.607600	-0.607700	-0.607900	-0.608100	-0.608200	-0.608400	-0.608500	-0.608700	-0.608800	-0.608900	-0.609000	-0.609100
114.000000	-0.616300	-0.623800	-0.626300	-0.627900	-0.595000	-0.601200	-0.609100	-0.608600	-0.605300	-0.631700	-0.631600	-0.631800	-0.632300	-0.632700	-0.633100	-0.633500	-0.633800	-0.634100	-0.634300	-0.634500	-0.634700	-0.634800	-0.634900	-0.635000	-0.635000	-0.635100	-0.635200	-0.635300	-0.635400	-0.635600	-0.635800	-0.636000	-0.636100	-0.636300	-0.636400	-0.636500	-0.636700	-0.636800	-0.636900
115.000000	-0.642500	-0.650200	-0.652800	-0.654500	-0.622300	-0.628300	-0.636100	-0.635700	-0.658300	-0.658400	-0.658300	-0.658500	-0.659000	-0.659500	-0.659900	-0.660300	-0.660600	-0.660900	-0.661100	-0.661300	-0.661500	-0.661600	-0.661700	-0.661800	-0.661800	-0.661900	-0.662000	-0.662100	-0.662300	-0.662500	-0.662700	-0.662800	-0.663000	-0.663100	-0.663300	-0.663400	-0.663600	-0.663700	-0.663800
116.000000	-0.667700	-0.675700	-0.678400	-0.680100	-0.648600	-0.654600	-0.662200	-0.661900	-0.684100	-0.684200	-0.684000	-0.684300	-0.684800	-0.685300	-0.685700	-0.686100	-0.686500	-0.686800	-0.687000	-0.687200	-0.687400	-0.687500	-0.687600	-0.687700	-0.687800	-0.687800	-0.687900	-0.688000	-0.688200	-0.688400	-0.688600	-0.688800	-0.688900	-0.689100	-0.689200	-0.689400	-0.689500	-0.689700	-0.689800
117.000000	-0.692100	-0.700300	-0.703100	-0.704900	-0.706100	-0.679900	-0.687400	-0.687100	-0.708900	-0.709000	-0.708900	-0.709200	-0.709700	-0.710200	-0.710600	-0.711000	-0.711400	-0.711700	-0.712000	-0.712200	-0.712300	-0.712500	-0.712600	-0.712700	-0.712700	-0.712800	-0.712900	-0.713000	-0.713200	-0.713400	-0.713600	-0.713800	-0.713900	-0.714100	-0.714300	-0.714400	-0.714600	-0.714700	-0.714800
118.000000	-0.715500	-0.723900	-0.726800	-0.728600	-0.729900	-0.704200	-0.711600	-0.711400	-0.732800	-0.732900	-0.732800	-0.733100	-0.733600	-0.734100	-0.734500	-0.735000	-0.735300	-0.735600	-0.735900	-0.736100	-0.736300	-0.736400	-0.736500	-0.736600	-0.736700	-0.736800	-0.736900	-0.737000	-0.737200	-0.737400	-0.737600	-0.737800	-0.738000	-0.738100	-0.738300	-0.738400	-0.738600	-0.738700	-0.738900
119.000000	-0.737900	-0.746600	-0.749500	-0.751400	-0.752600	-0.727500	-0.734800	-0.734600	-0.755700	-0.755700	-0.755600	-0.755900	-0.756500	-0.757000	-0.757500	-0.757900	-0.758200	-0.758600	-0.758800	-0.759100	-0.759200	-0.759400	-0.759500	-0.759600	-0.759700	-0.759800	-0.759800	-0.760000	-0.760200	-0.760400	-0.760600	-0.760800	-0.760900	-0.761100	-0.761300	-0.761400	-0.761600	-0.761700	-0.761900
120.000000	-0.759300	-0.768200	-0.771200	-0.773100	-0.774400	-0.749700	-0.756900	-0.756800	-0.777500	-0.777600	-0.777400	-0.777700	-0.778300	-0.778800	-0.779300	-0.779700	-0.780100	-0.780500	-0.780700	-0.781000	-0.781100	-0.781300	-0.781400	-0.781500	-0.781600	-0.781700	-0.781800	-0.781900	-0.782100	-0.782300	-0.782500	-0.782700	-0.782900	-0.783100	-0.783200	-0.783400	-0.783500	-0.783700	-0.783800
121.000000	-0.779700	-0.788700	-0.791800	-0.793800	-0.795100	-0.770800	-0.778000	-0.777800	-0.798200	-0.798300	-0.798200	-0.798500	-0.799100	-0.799600	-0.800100	-0.800500	-0.800900	-0.801300	-0.801500	-0.801800	-0.802000	-0.802100	-0.802200	-0.802300	-0.802400	-0.802500	-0.802600	-0.802700	-0.802900	-0.803100	-0.803300	-0.803500	-0.803700	-0.803900	-0.804100	-0.804300	-0.804400	-0.804600	-0.804700
122.000000	-0.799000	-0.808200	-0.811300	-0.813300	-0.814700	-0.790900	-0.797900	-0.817800	-0.817900	-0.817900	-0.817800	-0.818100	-0.818700	-0.819300	-0.819800	-0.820200	-0.820600	-0.820900	-0.821200	-0.821500	-0.821700	-0.821800	-0.821900	-0.822000	-0.822100	-0.822200	-0.822300	-0.822400	-0.822600	-0.822900	-0.823100	-0.823300	-0.823500	-0.823700	-0.823800	-0.824000	-0.824200	-0.824300	-0.824400
123.000000	-0.817300	-0.826600	-0.829700	-0.831800	-0.833100	-0.809800	-0.816700	-0.836300	-0.836400	-0.836500	-0.836300	-0.836700	-0.837200	-0.837800	-0.838300	-0.838700	-0.839100	-0.839500	-0.839800	-0.840000	-0.840200	-0.840400	-0.840500	-0.840600	-0.840700	-0.840800	-0.840900	-0.841000	-0.841200	-0.841400	-0.841700	-0.841900	-0.842100	-0.842200	-0.842400	-0.842600	-0.842800	-0.842900	-0.843000
124.000000	-0.834400	-0.843800	-0.847000	-0.849000	-0.850400	-0.827500	-0.834300	-0.853700	-0.853700	-0.853800	-0.853700	-0.854000	-0.854600	-0.855100	-0.855700	-0.856100	-0.856500	-0.856900	-0.857200	-0.857400	-0.857600	-0.857800	-0.857900	-0.858000	-0.858100	-0.858200	-0.858300	-0.858400	-0.858600	-0.858900	-0.859100	-0.859300	-0.859500	-0.859700	-0.859800	-0.860000	-0.860200	-0.860300	-0.860500
125.000000	-0.850300	-0.859800	-0.863100	-0.865200	-0.866600	-0.844000	-0.850800	-0.869800	-0.869900	-0.870000	-0.869800	-0.870200	-0.870800	-0.871300	-0.871800	-0.872300	-0.872700	-0.873100	-0.873400	-0.873600	-0.873800	-0.874000	-0.874100	-0.874200	-0.874300	-0.874400	-0.874500	-0.874600	-0.874800	-0.875100	-0.875300	-0.875500	-0.875700	-0.875900	-0.876100	-0.876200	-0.876400	-0.876600	-0.876700
126.000000	-0.865100	-0.874700	-0.878000	-0.880100	-0.881500	-0.859300	-0.866000	-0.884800	-0.884800	-0.884900	-0.884800	-0.885100	-0.885700	-0.886300	-0.886800	-0.887300	-0.887700	-0.888000	-0.888300	-0.888600	-0.888800	-0.888900	-0.889100	-0.889200	-0.889300	-0.889400	-0.889500	-0.889600	-0.889800	-0.890100	-0.890300	-0.890500	-0.890700	-0.890900	-0.891100	-0.891200	-0.891400	-0.891600	-0.891700
127.000000	-0.878700	-0.888300	-0.891700	-0.893800	-0.895200	-0.897100	-0.880000	-0.898600	-0.898600	-0.898700	-0.898500	-0.898900	-0.899500	-0.900000	-0.900500	-0.901000	-0.901400	-0.901800	-0.902100	-0.902300	-0.902500	-0.902700	-0.902800	-0.902900	-0.903000	-0.903100	-0.903200	-0.903300	-0.903600	-0.903800	-0.904000	-0.904200	-0.904500	-0.904600	-0.904800	-0.905000	-0.905200	-0.905300	-0.905500
128.000000	-0.891100	-0.900800	-0.904100	-0.906200	-0.907700	-0.909600	-0.892700	-0.911100	-0.911100	-0.911100	-0.911000	-0.911300	-0.911900	-0.912500	-0.913000	-0.913500	-0.913900	-0.914300	-0.914600	-0.914800	-0.915000	-0.915200	-0.915300	-0.915400	-0.915500	-0.915600	-0.915700	-0.915800	-0.916100	-0.916300	-0.916500	-0.916700	-0.916900	-0.917100	-0.917300	-0.917500	-0.917700	-0.917800	-0.918000
129.000000	-0.902200	-0.912000	-0.915300	-0.917400	-0.918900	-0.920900	-0.904100	-0.922300	-0.922300	-0.922400	-0.922200	-0.922600	-0.923200	-0.923700	-0.924300	-0.924700	-0.925100	-0.925500	-0.925800	-0.926000	-0.926200	-0.926400	-0.926500	-0.926600	-0.926700	-0.926800	-0.926900	-0.927100	-0.927300	-0.927500	-0.927800	-0.928000	-0.928200	-0.928400	-0.928500	-0.928700	-0.928900	-0.929000	-0.929200
130.000000	-0.912200	-0.921900	-0.925200	-0.927400	-0.928900	-0.930800	-0.914300	-0.932300	-0.932200	-0.932300	-0.932200	-0.932500	-0.933100	-0.933700	-0.934200	-0.934700	-0.935100	-0.935400	-0.935700	-0.936000	-0.936200	-0.936300	-0.936500	-0.936600	-0.936700	-0.936800	-0.936900	-0.937000	-0.937200	-0.937500	-0.937700	-0.937900	-0.938100	-0.938300	-0.938500	-0.938700	-0.938800	-0.939000	-0.939100
131.000000	-0.920800	-0.930500	-0.933900	-0.936000	-0.937500	-0.939500	-0.923200	-0.940900	-0.940900	-0.941000	-0.940800	-0.941200	-0.941800	-0.942300	-0.942800	-0.943300	-0.943700	-0.944000	-0.944300	-0.944600	-0.944800	-0.945000	-0.945100	-0.945200	-0.945300	-0.945400	-0.945500	-0.945600	-0.945900	-0.946100	-0.946300	-0.946500	-0.946700	-0.946900	-0.947100	-0.947300	-0.947400	-0.947600	-0.947700
132.000000	-0.928200	-0.937900	-0.941300	-0.943400	-0.944900	-0.946900	-0.930700	-0.948300	-0.948300	-0.948300	-0.948200	-0.948500	-0.949100	-0.949700	-0.950200	-0.950600	-0.951000	-0.951400	-0.951700	-0.951900	-0.952100	-0.952300	-0.952400	-0.952500	-0.952600	-0.952700	-0.952800	-0.952900	-0.953200	-0.953400	-0.953600	-0.953900	-0.954100	-0.954200	-0.954400	-0.954600	-0.954800	-0.954900	-0.955100
133.000000	-0.934400	-0.944000	-0.947300	-0.949500	-0.951000	-0.953000	-0.936900	-0.954400	-0.954300	-0.954400	-0.954200	-0.954500	-0.955100	-0.955700	-0.956200	-0.956600	-0.957000	-0.957400	-0.957700	-0.957900	-0.958100	-0.958300	-0.958400	-0.958500	-0.958600	-0.958700	-0.958800	-0.958900	-0.959200	-0.959400	-0.959600	-0.959800	-0.960000	-0.960200	-0.960400	-0.960600	-0.960700	-0.960900	-0.961000
134.000000	-0.939200	-0.948800	-0.952100	-0.954200	-0.955700	-0.957800	-0.941800	-0.959200	-0.959000	-0.959100	-0.958900	-0.959300	-0.959800	-0.960400	-0.960900	-0.961300	-0.961700	-0.962100	-0.962400	-0.962600	-0.962800	-0.963000	-0.963100	-0.963200	-0.963300	-0.963400	-0.963500	-0.963600	-0.963900	-0.964100	-0.964300	-0.964500	-0.964700	-0.964900	-0.965100	-0.965200	-0.965400	-0.965600	-0.965700
135.000000	-0.942800	-0.952300	-0.955600	-0.957700	-0.959200	-0.961300	-0.945400	-0.962600	-0.962500	-0.962500	-0.962400	-0.962700	-0.963200	-0.963800	-0.964300	-0.964700	-0.965100	-0.965400	-0.965700	-0.966000	-0.966200	-0.966300	-0.966500	-0.966600	-0.966700	-0.966800	-0.966900	-0.967000	-0.967200	-0.967400	-0.967700	-0.967900	-0.968100	-0.968200	-0.968400	-0.968600	-0.968700	-0.968900	-0.969000
136.000000	-0.945000	-0.954400	-0.957700	-0.959800	-0.961300	-0.963400	-0.947700	-0.964700	-0.964600	-0.964600	-0.964500	-0.964800	-0.965300	-0.965800	-0.966300	-0.966800	-0.967100	-0.967500	-0.967800	-0.968000	-0.968200	-0.968300	-0.968500	-0.968600	-0.968700	-0.968800	-0.968900	-0.969000	-0.969200	-0.969500	-0.969700	-0.969900	-0.970100	-0.970200	-0.970400	-0.970600	-0.970700	-0.970900	-0.971000
137.000000	-0.946000	-0.955300	-0.958600	-0.960700	-0.962200	-0.964200	-0.948600	-0.965500	-0.965300	-0.965400	-0.965200	-0.965500	-0.966100	-0.966600	-0.967100	-0.967500	-0.967900	-0.968200	-0.968500	-0.968700	-0.968900	-0.969000	-0.969200	-0.969300	-0.969400	-0.969500	-0.969600	-0.969700	-0.969900	-0.970100	-0.970300	-0.970500	-0.970700	-0.970900	-0.971100	-0.971200	-0.971400	-0.971500	-0.971700
138.000000	-0.945700	-0.954900	-0.958100	-0.960200	-0.961700	-0.963800	-0.948200	-0.965000	-0.964800	-0.964800	-0.964700	-0.965000	-0.965500	-0.966000	-0.966500	-0.966900	-0.967300	-0.967600	-0.967800	-0.968100	-0.968300	-0.968400	-0.968500	-0.968600	-0.968700	-0.968800	-0.968900	-0.969100	-0.969300	-0.969500	-0.969700	-0.969900	-0.970100	-0.970300	-0.970400	-0.970600	-0.970700	-0.970900	-0.971000
139.000000	-0.944200	-0.953200	-0.956400	-0.958400	-0.959900	-0.962000	-0.946400	-0.963200	-0.963000	-0.963000	-0.962800	-0.963100	-0.963600	-0.964100	-0.964600	-0.965000	-0.965400	-0.965700	-0.965900	-0.966100	-0.966300	-0.966500	-0.966600	-0.966700	-0.966800	-0.966900	-0.967000	-0.967100	-0.967300	-0.967500	-0.967700	-0.967900	-0.968100	-0.968300	-0.968500	-0.968600	-0.968800	-0.968900	-0.969000
140.000000	-0.941300	-0.950200	-0.953300	-0.955300	-0.956800	-0.958900	-0.943300	-0.960100	-0.959800	-0.959800	-0.959700	-0.960000	-0.960500	-0.961000	-0.961400	-0.961800	-0.962100	-0.962400	-0.962700	-0.962900	-0.963100	-0.963200	-0.963400	-0.963500	-0.963500	-0.963600	-0.963700	-0.963900	-0.964100	-0.964300	-0.964500	-0.964700	-0.964800	-0.965000	-0.965200	-0.965300	-0.965500	-0.965600	-0.965700
141.000000	-0.937200	-0.945900	-0.949000	-0.951000	-0.952400	-0.954500	-0.939000	-0.955700	-0.955400	-0.955400	-0.955200	-0.955500	-0.956000	-0.956500	-0.956900	-0.957300	-0.957600	-0.957900	-0.958100	-0.958400	-0.958500	-0.958700	-0.958800	-0.958900	-0.959000	-0.959100	-0.959200	-0.959300	-0.959500	-0.959700	-0.959900	-0.960100	-0.960300	-0.960400	-0.960600	-0.960700	-0.960900	-0.961000	-0.961100
142.000000	-0.931900	-0.940400	-0.943400	-0.945300	-0.946800	-0.948800	-0.933300	-0.950000	-0.949700	-0.949600	-0.949500	-0.949800	-0.950300	-0.950700	-0.951100	-0.951500	-0.951800	-0.952100	-0.952300	-0.952500	-0.952700	-0.952900	-0.953000	-0.953100	-0.953200	-0.953300	-0.953400	-0.953500	-0.953700	-0.953900	-0.954000	-0.954200	-0.954400	-0.954600	-0.954700	-0.954800	-0.955000	-0.955100	-0.955200
143.000000	-0.925300	-0.933600	-0.936500	-0.938400	-0.939900	-0.941900	-0.926300	-0.943000	-0.942700	-0.942700	-0.942500	-0.942800	-0.943300	-0.943700	-0.944100	-0.944400	-0.944800	-0.945000	-0.945300	-0.945400	-0.945600	-0.945800	-0.945900	-0.946000	-0.946100	-0.946200	-0.946300	-0.946400	-0.946600	-0.946700	-0.946900	-0.947100	-0.947300	-0.947400	-0.947600	-0.947700	-0.947800	-0.947900	-0.948100
144.000000	-0.917400	-0.925500	-0.928400	-0.930300	-0.931700	-0.933700	-0.918100	-0.934800	-0.934500	-0.934400	-0.934300	-0.934500	-0.935000	-0.935400	-0.935800	-0.936200	-0.936500	-0.936700	-0.936900	-0.937100	-0.937300	-0.937400	-0.937500	-0.937600	-0.937700	-0.937800	-0.937900	-0.938000	-0.938200	-0.938400	-0.938600	-0.938700	-0.938900	-0.939000	-0.939200	-0.939300	-0.939400	-0.939500	-0.939700
145.000000	-0.908400	-0.916300	-0.919100	-0.921000	-0.922400	-0.924300	-0.908600	-0.925300	-0.925000	-0.925000	-0.924800	-0.925100	-0.925500	-0.925900	-0.926300	-0.926600	-0.926900	-0.927200	-0.927400	-0.927600	-0.927700	-0.927900	-0.928000	-0.928100	-0.928200	-0.928200	-0.928300	-0.928400	-0.928600	-0.928800	-0.929000	-0.929100	-0.929300	-0.929400	-0.929600	-0.929700	-0.929800	-0.929900	-0.930000
146.000000	-0.898200	-0.905900	-0.908600	-0.910400	-0.911800	-0.913700	-0.897800	-0.914700	-0.914400	-0.914300	-0.914200	-0.914400	-0.914800	-0.915200	-0.915600	-0.915900	-0.916200	-0.916400	-0.916600	-0.916800	-0.917000	-0.917100	-0.917200	-0.917300	-0.917400	-0.917500	-0.917600	-0.917600	-0.917800	-0.918000	-0.918200	-0.918300	-0.918500	-0.918600	-0.918700	-0.918900	-0.919000	-0.919100	-0.919200
147.000000	-0.886900	-0.894300	-0.897000	-0.898700	-0.900000	-0.901800	-0.885900	-0.902800	-0.902500	-0.902500	-0.902400	-0.902600	-0.903000	-0.903400	-0.903700	-0.904000	-0.904300	-0.904500	-0.904700	-0.904900	-0.905000	-0.905200	-0.905300	-0.905400	-0.905400	-0.905500	-0.905600	-0.905700	-0.905900	-0.906100	-0.906200	-0.906400	-0.906500	-0.906600	-0.906800	-0.906900	-0.907000	-0.907100	-0.907200
148.000000	-0.874400	-0.881500	-0.884200	-0.885800	-0.887100	-0.888800	-0.872700	-0.889800	-0.889500	-0.889500	-0.889400	-0.889600	-0.890000	-0.890400	-0.890700	-0.891000	-0.891300	-0.891500	-0.891700	-0.891800	-0.892000	-0.892100	-0.892200	-0.892300	-0.892400	-0.892500	-0.892500	-0.892600	-0.892800	-0.893000	-0.893100	-0.893300	-0.893400	-0.893500	-0.893600	-0.893800	-0.893900	-0.894000	-0.894100
149.000000	-0.860800	-0.867700	-0.870200	-0.871800	-0.873000	-0.874700	-0.858400	-0.875600	-0.875400	-0.875400	-0.875300	-0.875500	-0.875900	-0.876300	-0.876600	-0.876900	-0.877100	-0.877300	-0.877500	-0.877700	-0.877800	-0.877900	-0.878000	-0.878100	-0.878200	-0.878300	-0.878400	-0.878500	-0.878600	-0.878800	-0.878900	-0.879100	-0.879200	-0.879300	-0.879400	-0.879500	-0.879600	-0.879700	-0.879800
150.000000	-0.846100	-0.852800	-0.855200	-0.856700	-0.857900	-0.859400	-0.842900	-0.860400	-0.860200	-0.860200	-0.860100	-0.860400	-0.860800	-0.861100	-0.861400	-0.861700	-0.861900	-0.862100	-0.862300	-0.862400	-0.862600	-0.862700	-0.862800	-0.862900	-0.863000	-0.863100	-0.863100	-0.863200	-0.863400	-0.863500	-0.863700	-0.863800	-0.863900	-0.864100	-0.864200	-0.864300	-0.864400	-0.864500	-0.864500
151.000000	-0.830500	-0.836800	-0.839200	-0.840600	-0.841700	-0.843100	-0.826300	-0.844000	-0.843900	-0.844000	-0.843900	-0.844200	-0.844600	-0.844900	-0.845200	-0.845500	-0.845700	-0.845900	-0.846100	-0.846200	-0.846300	-0.846500	-0.846600	-0.846700	-0.846700	-0.846800	-0.846900	-0.847000	-0.847100	-0.847300	-0.847400	-0.847600	-0.847700	-0.847800	-0.847900	-0.848000	-0.848100	-0.848200	-0.848300
152.000000	-0.813800	-0.819900	-0.822200	-0.823500	-0.824500	-0.825700	-0.808700	-0.826700	-0.826600	-0.826700	-0.826700	-0.827000	-0.827400	-0.827700	-0.828000	-0.828300	-0.828500	-0.828700	-0.828900	-0.829000	-0.829100	-0.829300	-0.829400	-0.829500	-0.829600	-0.829600	-0.829700	-0.829800	-0.830000	-0.830100	-0.830200	-0.830400	-0.830500	-0.830600	-0.830700	-0.830800	-0.830900	-0.831000	-0.831100
153.000000	-0.796200	-0.802000	-0.804200	-0.805400	-0.806300	-0.807300	-0.790000	-0.808300	-0.808400	-0.808600	-0.808600	-0.808900	-0.809300	-0.809600	-0.809900	-0.810200	-0.810400	-0.810600	-0.810800	-0.810900	-0.811000	-0.811200	-0.811300	-0.811400	-0.811500	-0.811600	-0.811700	-0.811800	-0.811900	-0.812100	-0.812200	-0.812300	-0.812400	-0.812500	-0.812600	-0.812700	-0.812800	-0.812900	-0.813000
154.000000	-0.777800	-0.783300	-0.785300	-0.786400	-0.787100	-0.787900	-0.770200	-0.788900	-0.789200	-0.789500	-0.789600	-0.789900	-0.790300	-0.790700	-0.791000	-0.791200	-0.791500	-0.791700	-0.791800	-0.792000	-0.792100	-0.792300	-0.792400	-0.792500	-0.792600	-0.792700	-0.792800	-0.792900	-0.793100	-0.793200	-0.793300	-0.793500	-0.793600	-0.793700	-0.793800	-0.793900	-0.794000	-0.794100	-0.794200
155.000000	-0.758500	-0.763700	-0.765500	-0.766500	-0.767100	-0.767500	-0.749500	-0.768600	-0.769100	-0.769500	-0.769700	-0.770100	-0.770500	-0.770900	-0.771200	-0.771500	-0.771800	-0.772000	-0.772200	-0.772300	-0.772500	-0.772600	-0.772800	-0.772900	-0.773000	-0.773100	-0.773200	-0.773300	-0.773500	-0.773700	-0.773800	-0.773900	-0.774100	-0.774200	-0.774300	-0.774400	-0.774500	-0.774600	-0.774700
156.000000	-0.738500	-0.743300	-0.745000	-0.745800	-0.746200	-0.746200	-0.727800	-0.747500	-0.748200	-0.748800	-0.749100	-0.749500	-0.750000	-0.750400	-0.750800	-0.751100	-0.751400	-0.751600	-0.751800	-0.752000	-0.752200	-0.752400	-0.752500	-0.752700	-0.752800	-0.753000	-0.753100	-0.753200	-0.753400	-0.753500	-0.753700	-0.753800	-0.754000	-0.754100	-0.754200	-0.754300	-0.754500	-0.754600	-0.754700
157.000000	-0.717800	-0.722300	-0.723800	-0.724400	-0.724500	-0.724100	-0.705200	-0.725500	-0.726600	-0.727300	-0.727800	-0.728300	-0.728900	-0.729400	-0.729800	-0.730100	-0.730400	-0.730700	-0.731000	-0.731200	-0.731400	-0.731600	-0.731800	-0.732000	-0.732200	-0.732300	-0.732500	-0.732600	-0.732800	-0.733000	-0.733200	-0.733400	-0.733500	-0.733700	-0.733800	-0.733900	-0.734100	-0.734200	-0.734300
158.000000	-0.696500	-0.700600	-0.701900	-0.702200	-0.702100	-0.701200	-0.681800	-0.702700	-0.704200	-0.705200	-0.705800	-0.706500	-0.707200	-0.707800	-0.708300	-0.708700	-0.709100	-0.709400	-0.709700	-0.710000	-0.710300	-0.710500	-0.710800	-0.711000	-0.711200	-0.711400	-0.711600	-0.711800	-0.712100	-0.712300	-0.712500	-0.712700	-0.712900	-0.713100	-0.713200	-0.713400	-0.713600	-0.713700	-0.713900
159.000000	-0.674800	-0.678500	-0.679500	-0.679500	-0.679000	-0.677400	-0.657500	-0.679200	-0.681100	-0.682500	-0.683400	-0.684300	-0.685100	-0.685800	-0.686500	-0.687000	-0.687500	-0.687900	-0.688300	-0.688600	-0.689000	-0.689400	-0.689700	-0.690000	-0.690300	-0.690500	-0.690800	-0.691100	-0.691300	-0.691600	-0.691900	-0.692100	-0.692400	-0.692600	-0.692900	-0.693100	-0.693300	-0.693500	-0.693700
160.000000	-0.652700	-0.656000	-0.656600	-0.656300	-0.655200	-0.653000	-0.632400	-0.654900	-0.657500	-0.659300	-0.660600	-0.661800	-0.662800	-0.663700	-0.664500	-0.665200	-0.665800	-0.666400	-0.666900	-0.667400	-0.667900	-0.668300	-0.668800	-0.669200	-0.669600	-0.669900	-0.670300	-0.670700	-0.671100	-0.671400	-0.671800	-0.672100	-0.672500	-0.672800	-0.673100	-0.673400	-0.673700	-0.674000	-0.674300
161.000000	-0.630400	-0.633200	-0.633400	-0.632600	-0.631000	-0.627800	-0.606600	-0.630100	-0.633500	-0.635800	-0.637500	-0.639100	-0.640500	-0.641600	-0.642700	-0.643600	-0.644500	-0.645200	-0.645900	-0.646600	-0.647300	-0.647900	-0.648500	-0.649100	-0.649600	-0.650200	-0.650700	-0.651200	-0.651700	-0.652200	-0.652700	-0.653200	-0.653700	-0.654200	-0.654600	-0.655100	-0.655500	-0.656000	-0.656400
162.000000	-0.608200	-0.610400	-0.610100	-0.608600	-0.606200	-0.602000	-0.580100	-0.604600	-0.609000	-0.612100	-0.614400	-0.616500	-0.618300	-0.619900	-0.621300	-0.622600	-0.623700	-0.624800	-0.625800	-0.626800	-0.627700	-0.628600	-0.629500	-0.630300	-0.631100	-0.631800	-0.632600	-0.633300	-0.634100	-0.634900	-0.635600	-0.636300	-0.637000	-0.637700	-0.638400	-0.639000	-0.639700	-0.640400	-0.641100
163.000000	-0.586300	-0.587700	-0.586700	-0.584500	-0.581100	-0.575500	-0.552900	-0.578600	-0.584200	-0.588300	-0.591500	-0.594300	-0.596700	-0.598900	-0.600800	-0.602600	-0.604200	-0.605700	-0.607200	-0.608500	-0.609900	-0.611200	-0.612500	-0.613700	-0.614800	-0.616000	-0.617100	-0.618200	-0.619400	-0.620500	-0.621600	-0.622600	-0.623700	-0.624800	-0.625800	-0.626900	-0.627900	-0.629000	-0.630100
164.000000	-0.564900	-0.565500	-0.563500	-0.560300	-0.555700	-0.548600	-0.525100	-0.552200	-0.559300	-0.564600	-0.568900	-0.572700	-0.576100	-0.579100	-0.581800	-0.584300	-0.586700	-0.588900	-0.591000	-0.593000	-0.595000	-0.596900	-0.598800	-0.600600	-0.602400	-0.604100	-0.605800	-0.607500	-0.609300	-0.611000	-0.612600	-0.614300	-0.615900	-0.617600	-0.619300	-0.620900	-0.622600	-0.624300	-0.626000
165.000000	-0.544600	-0.544000	-0.540900	-0.536200	-0.530000	-0.521100	-0.496800	-0.525300	-0.534300	-0.541300	-0.547200	-0.552300	-0.557000	-0.561200	-0.565100	-0.568700	-0.572100	-0.575400	-0.578500	-0.581500	-0.584500	-0.587400	-0.590200	-0.593000	-0.595700	-0.598400	-0.601100	-0.603700	-0.606400	-0.609100	-0.611700	-0.614300	-0.616900	-0.619600	-0.622200	-0.624900	-0.627600	-0.630400	-0.633200
166.000000	-0.525900	-0.523800	-0.519000	-0.512500	-0.504300	-0.493100	-0.467900	-0.498100	-0.509500	-0.518700	-0.526600	-0.533800	-0.540300	-0.546200	-0.551800	-0.557100	-0.562200	-0.567000	-0.571700	-0.576200	-0.580700	-0.585100	-0.589400	-0.593700	-0.597900	-0.602100	-0.606300	-0.610400	-0.614700	-0.618900	-0.623000	-0.627200	-0.631400	-0.635600	-0.639900	-0.644200	-0.648600	-0.653100	-0.657600
167.000000	-0.509500	-0.505400	-0.498400	-0.489500	-0.478600	-0.464700	-0.438500	-0.470600	-0.484900	-0.497100	-0.507900	-0.517700	-0.526900	-0.535500	-0.543600	-0.551300	-0.558800	-0.566000	-0.573100	-0.579900	-0.586700	-0.593500	-0.600100	-0.606700	-0.613200	-0.619700	-0.626100	-0.632600	-0.639200	-0.645700	-0.652200	-0.658700	-0.665300	-0.671900	-0.678600	-0.685400	-0.692300	-0.699300	-0.706500
168.000000	-0.496200	-0.489500	-0.479400	-0.467300	-0.453100	-0.435900	-0.408800	-0.442800	-0.460900	-0.476900	-0.491600	-0.505300	-0.518300	-0.530600	-0.542300	-0.553700	-0.564700	-0.575400	-0.585900	-0.596100	-0.606300	-0.616300	-0.626300	-0.636100	-0.645900	-0.655500	-0.665200	-0.674800	-0.684400	-0.694100	-0.703600	-0.713200	-0.722800	-0.732400	-0.742100	-0.751900	-0.761700	-0.771700	-0.781800
169.000000	-0.487000	-0.476900	-0.462800	-0.446300	-0.427800	-0.406800	-0.378600	-0.414800	-0.437500	-0.458600	-0.478600	-0.497700	-0.515900	-0.533300	-0.550200	-0.566500	-0.582300	-0.597700	-0.612700	-0.627300	-0.641700	-0.655900	-0.669800	-0.683400	-0.696800	-0.710000	-0.722900	-0.735700	-0.748400	-0.760800	-0.773100	-0.785100	-0.797100	-0.808900	-0.820600	-0.832100	-0.843600	-0.855000	-0.866300
170.000000	-0.482700	-0.468400	-0.449000	-0.426900	-0.403000	-0.377300	-0.348200	-0.386700	-0.415000	-0.442800	-0.469800	-0.495900	-0.521000	-0.545100	-0.568300	-0.590500	-0.611900	-0.632400	-0.652100	-0.671000	-0.689200	-0.706700	-0.723500	-0.739700	-0.755200	-0.770000	-0.784300	-0.798000	-0.811100	-0.823600	-0.835700	-0.847300	-0.858400	-0.869100	-0.879400	-0.889200	-0.898700	-0.907700	-0.916400
171.000000	-0.483200	-0.464300	-0.438400	-0.409300	-0.378500	-0.347400	-0.317400	-0.358300	-0.393500	-0.429700	-0.465700	-0.500400	-0.533400	-0.564700	-0.594000	-0.621400	-0.646900	-0.670500	-0.692400	-0.712600	-0.731400	-0.748600	-0.764600	-0.779200	-0.792700	-0.805000	-0.816400	-0.826800	-0.836200	-0.844800	-0.852900	-0.860400	-0.867300	-0.873600	-0.879400	-0.884800	-0.889600	-0.894100	-0.898200
172.000000	-0.486400	-0.463800	-0.430900	-0.393500	-0.354500	-0.317200	-0.286400	-0.329800	-0.373100	-0.419500	-0.465500	-0.509000	-0.548900	-0.584900	-0.616900	-0.645200	-0.669900	-0.691400	-0.710200	-0.726500	-0.740600	-0.752800	-0.763400	-0.772500	-0.780400	-0.787300	-0.793200	-0.798300	-0.802400	-0.806000	-0.809400	-0.812400	-0.815100	-0.817300	-0.819300	-0.821000	-0.822500	-0.823700	-0.824800
173.000000	-0.486300	-0.463200	-0.424700	-0.378900	-0.330700	-0.286500	-0.255300	-0.300900	-0.353400	-0.410800	-0.466300	-0.515400	-0.556800	-0.591100	-0.619000	-0.641400	-0.659300	-0.673500	-0.684900	-0.693900	-0.701200	-0.706900	-0.711500	-0.715200	-0.718100	-0.720500	-0.722300	-0.723800	-0.724600	-0.725300	-0.726200	-0.727000	-0.727600	-0.728100	-0.728600	-0.729000	-0.729300	-0.729600	-0.729800
174.000000	-0.473300	-0.455200	-0.415800	-0.363800	-0.306600	-0.255400	-0.224000	-0.271500	-0.333600	-0.400800	-0.460800	-0.507800	-0.542200	-0.567400	-0.585300	-0.598000	-0.607100	-0.613500	-0.618200	-0.621500	-0.623900	-0.625700	-0.626900	-0.627800	-0.628500	-0.629000	-0.629400	-0.629700	-0.629600	-0.629500	-0.629800	-0.630100	-0.630400	-0.630700	-0.630900	-0.631100	-0.631400	-0.631600	-0.631800
175.000000	-0.438100	-0.430100	-0.396800	-0.344800	-0.281100	-0.223600	-0.192600	-0.241300	-0.311700	-0.383500	-0.438700	-0.474300	-0.495700	-0.509000	-0.517200	-0.522100	-0.525300	-0.527300	-0.528500	-0.529400	-0.530100	-0.530500	-0.530800	-0.531100	-0.531400	-0.531600	-0.531800	-0.532000	-0.531800	-0.531800	-0.532000	-0.532300	-0.532500	-0.532800	-0.533000	-0.533200	-0.533300	-0.533500	-0.533700
176.000000	-0.378900	-0.381000	-0.359900	-0.316300	-0.252400	-0.190900	-0.161200	-0.209500	-0.284400	-0.351300	-0.391900	-0.412000	-0.421200	-0.426100	-0.428600	-0.430000	-0.430900	-0.431500	-0.431900	-0.432300	-0.432600	-0.432900	-0.433200	-0.433400	-0.433600	-0.433800	-0.434000	-0.434200	-0.434100	-0.434000	-0.434300	-0.434500	-0.434700	-0.434800	-0.435000	-0.435200	-0.435300	-0.435400	-0.435600
177.000000	-0.301900	-0.309700	-0.301000	-0.272500	-0.217600	-0.157000	-0.129800	-0.175300	-0.247100	-0.298200	-0.320700	-0.328500	-0.330900	-0.332200	-0.332900	-0.333400	-0.333800	-0.334200	-0.334500	-0.334800	-0.335100	-0.335300	-0.335500	-0.335800	-0.335900	-0.336100	-0.336200	-0.336400	-0.336300	-0.336300	-0.336500	-0.336600	-0.336800	-0.336900	-0.337000	-0.337200	-0.337300	-0.337400	-0.337500
178.000000	-0.216300	-0.224300	-0.223200	-0.210000	-0.172800	-0.121300	-0.098500	-0.137300	-0.195000	-0.224400	-0.233100	-0.235000	-0.235300	-0.235700	-0.236000	-0.236400	-0.236700	-0.236900	-0.237100	-0.237300	-0.237600	-0.237700	-0.237900	-0.238100	-0.238200	-0.238300	-0.238500	-0.238600	-0.238500	-0.238500	-0.238700	-0.238800	-0.238900	-0.239000	-0.239100	-0.239200	-0.239200	-0.239300	-0.239400
179.000000	-0.128100	-0.133000	-0.134100	-0.130800	-0.114600	-0.083100	-0.067300	-0.093500	-0.125800	-0.136400	-0.138400	-0.138700	-0.138700	-0.138900	-0.139100	-0.139300	-0.139500	-0.139600	-0.139800	-0.139900	-0.140000	-0.140100	-0.140300	-0.140400	-0.140500	-0.140600	-0.140700	-0.140800	-0.140800	-0.140800	-0.140900	-0.140900	-0.141000	-0.141100	-0.141100	-0.141200	-0.141200	-0.141300	-0.141300
180.000000	-0.039500	-0.040300	-0.040800	-0.040900	-0.041100	-0.041400	-0.036200	-0.041500	-0.041500	-0.041600	-0.041800	-0.042000	-0.042200	-0.042200	-0.042300	-0.042300	-0.042300	-0.042300	-0.042400	-0.042400	-0.042500	-0.042600	-0.042600	-0.042700	-0.042800	-0.042800	-0.042900	-0.043000	-0.043000	-0.043000	-0.043100	-0.043100	-0.043100	-0.043100	-0.043200	-0.043200	-0.043200	-0.043200	-0.043200
